TimeStamp,Delta_TP9,Delta_AF7,Delta_AF8,Delta_TP10,Theta_TP9,Theta_AF7,Theta_AF8,Theta_TP10,Alpha_TP9,Alpha_AF7,Alpha_AF8,Alpha_TP10,Beta_TP9,Beta_AF7,Beta_AF8,Beta_TP10,Gamma_TP9,Gamma_AF7,Gamma_AF8,Gamma_TP10,RAW_TP9,RAW_AF7,RAW_AF8,RAW_TP10,AUX_RIGHT,AUX_LEFT,Accelerometer_X,Accelerometer_Y,Accelerometer_Z,Gyro_X,Gyro_Y,Gyro_Z,HeadBandOn,HSI_TP9,HSI_AF7,HSI_AF8,HSI_TP10,Battery,Elements
2024-05-15 12:29:14.644 AM,,,,,,,,,,,,,,,,,,,,,,,,,,,,,,,,,,,,,,,/muse/event/connected MuseS-87D7
2024-05-15 12:29:14.679 AM,0.4283949058347577,-0.3007103435269563,-0.3917154200610706,0.3147830169661152,0.2473923888716776,-0.1079297565794542,-0.08422207520452941,0.3837341074459262,1.243204832586771,0.5812093755595312,0.07307030443951426,1.086770343856975,0.4467716011904875,0.007490977800376046,-0.07909203036665052,0.4878111244033272,-0.1829931314203112,-0.1042721327579157,-0.5043436194698757,-0.1216745052115376,805.8608058608058,810.2930402930403,797.3992673992674,801.8315018315019,841.7216117216118,748.2417582417582,-0.076355,0.055481,0.989014,-0.306549,-1.061707,0.261688,1,1,1,1,1,88.000000
2024-05-15 12:29:14.679 AM,0.4283949058347577,-0.3007103435269563,-0.3917154200610706,0.3147830169661152,0.2473923888716776,-0.1079297565794542,-0.08422207520452941,0.3837341074459262,1.243204832586771,0.5812093755595312,0.07307030443951426,1.086770343856975,0.4467716011904875,0.007490977800376046,-0.07909203036665052,0.4878111244033272,-0.1829931314203112,-0.1042721327579157,-0.5043436194698757,-0.1216745052115376,804.6520146520147,791.3553113553114,789.7435897435897,762.3443223443223,752.2710622710623,663.2234432234433,-0.076355,0.055481,0.989014,-0.306549,-1.061707,0.261688,1,1,1,1,1,88.000000
2024-05-15 12:29:14.679 AM,0.4283949058347577,-0.3007103435269563,-0.3917154200610706,0.3147830169661152,0.2473923888716776,-0.1079297565794542,-0.08422207520452941,0.3837341074459262,1.243204832586771,0.5812093755595312,0.07307030443951426,1.086770343856975,0.4467716011904875,0.007490977800376046,-0.07909203036665052,0.4878111244033272,-0.1829931314203112,-0.1042721327579157,-0.5043436194698757,-0.1216745052115376,825.6043956043957,797.8021978021978,795.7875457875458,780.0732600732601,723.6630036630037,747.8388278388279,-0.076355,0.055481,0.989014,-0.306549,-1.061707,0.261688,1,1,1,1,1,88.000000
2024-05-15 12:29:14.679 AM,0.4283949058347577,-0.3007103435269563,-0.3917154200610706,0.3147830169661152,0.2473923888716776,-0.1079297565794542,-0.08422207520452941,0.3837341074459262,1.243204832586771,0.5812093755595312,0.07307030443951426,1.086770343856975,0.4467716011904875,0.007490977800376046,-0.07909203036665052,0.4878111244033272,-0.1829931314203112,-0.1042721327579157,-0.5043436194698757,-0.1216745052115376,830.4395604395604,818.3516483516484,805.4578754578755,836.8864468864469,819.5604395604396,741.3919413919414,-0.076355,0.055481,0.989014,-0.306549,-1.061707,0.261688,1,1,1,1,1,88.000000
2024-05-15 12:29:14.680 AM,0.4283949058347577,-0.3007103435269563,-0.3917154200610706,0.3147830169661152,0.2473923888716776,-0.1079297565794542,-0.08422207520452941,0.3837341074459262,1.243204832586771,0.5812093755595312,0.07307030443951426,1.086770343856975,0.4467716011904875,0.007490977800376046,-0.07909203036665052,0.4878111244033272,-0.1829931314203112,-0.1042721327579157,-0.5043436194698757,-0.1216745052115376,825.2014652014652,825.2014652014652,807.0695970695971,871.1355311355312,886.8498168498169,1012.564102564103,-0.076355,0.055481,0.989014,-0.306549,-1.061707,0.261688,1,1,1,1,1,88.000000
2024-05-15 12:29:14.680 AM,0.4283949058347577,-0.3007103435269563,-0.3917154200610706,0.3147830169661152,0.2473923888716776,-0.1079297565794542,-0.08422207520452941,0.3837341074459262,1.243204832586771,0.5812093755595312,0.07307030443951426,1.086770343856975,0.4467716011904875,0.007490977800376046,-0.07909203036665052,0.4878111244033272,-0.1829931314203112,-0.1042721327579157,-0.5043436194698757,-0.1216745052115376,810.6959706959707,807.8754578754579,798.6080586080586,836.8864468864469,848.1684981684982,1217.655677655678,-0.076355,0.055481,0.989014,-0.306549,-1.061707,0.261688,1,1,1,1,1,88.000000
2024-05-15 12:29:14.680 AM,0.4283949058347577,-0.3007103435269563,-0.3917154200610706,0.3147830169661152,0.2473923888716776,-0.1079297565794542,-0.08422207520452941,0.3837341074459262,1.243204832586771,0.5812093755595312,0.07307030443951426,1.086770343856975,0.4467716011904875,0.007490977800376046,-0.07909203036665052,0.4878111244033272,-0.1829931314203112,-0.1042721327579157,-0.5043436194698757,-0.1216745052115376,800.6227106227107,786.9230769230769,793.3699633699634,777.6556776556777,742.1978021978023,1062.527472527473,-0.076355,0.055481,0.989014,-0.306549,-1.061707,0.261688,1,1,1,1,1,88.000000
2024-05-15 12:29:14.680 AM,0.4512880453400496,-0.2818810931026965,-0.3799596072289332,0.2955795383025683,0.2702771672930147,-0.02028213394453752,-0.08756117974271958,0.3864872180943952,1.243204832586771,0.6058025558558341,0.08432270855011,1.086770343856975,0.4507008924403884,0.03566650500244399,-0.09243532447580784,0.4991289059264025,-0.1761001175323106,-0.08821227043138569,-0.5173319796782446,-0.1141232544122579,819.1575091575091,789.3406593406594,800.6227106227107,794.1758241758242,680.1465201465202,995.6410256410256,-0.076355,0.055481,0.989014,-0.306549,-1.061707,0.261688,1,1,1,1,1,88.000000
2024-05-15 12:29:14.681 AM,0.4512880453400496,-0.2818810931026965,-0.3799596072289332,0.2955795383025683,0.2702771672930147,-0.02028213394453752,-0.08756117974271958,0.3864872180943952,1.243204832586771,0.6058025558558341,0.08432270855011,1.086770343856975,0.4507008924403884,0.03566650500244399,-0.09243532447580784,0.4991289059264025,-0.1761001175323106,-0.08821227043138569,-0.5173319796782446,-0.1141232544122579,841.7216117216118,808.6813186813187,805.8608058608058,853.0036630036631,823.992673992674,883.6263736263736,-0.076355,0.055481,0.989014,-0.306549,-1.061707,0.261688,1,1,1,1,1,88.000000
2024-05-15 12:29:14.681 AM,0.4512880453400496,-0.2818810931026965,-0.3799596072289332,0.2955795383025683,0.2702771672930147,-0.02028213394453752,-0.08756117974271958,0.3864872180943952,1.243204832586771,0.6058025558558341,0.08432270855011,1.086770343856975,0.4507008924403884,0.03566650500244399,-0.09243532447580784,0.4991289059264025,-0.1761001175323106,-0.08821227043138569,-0.5173319796782446,-0.1141232544122579,844.9450549450549,822.3809523809524,806.2637362637363,880.8058608058608,904.5787545787546,919.8901098901099,-0.076355,0.055481,0.989014,-0.306549,-1.061707,0.261688,1,1,1,1,1,88.000000
2024-05-15 12:29:14.681 AM,0.4512880453400496,-0.2818810931026965,-0.3799596072289332,0.2955795383025683,0.2702771672930147,-0.02028213394453752,-0.08756117974271958,0.3864872180943952,1.243204832586771,0.6058025558558341,0.08432270855011,1.086770343856975,0.4507008924403884,0.03566650500244399,-0.09243532447580784,0.4991289059264025,-0.1761001175323106,-0.08821227043138569,-0.5173319796782446,-0.1141232544122579,826.8131868131868,812.3076923076924,797.3992673992674,851.7948717948718,815.5311355311355,888.4615384615385,-0.076355,0.055481,0.989014,-0.306549,-1.061707,0.261688,1,1,1,1,1,88.000000
2024-05-15 12:29:14.682 AM,0.4512880453400496,-0.2818810931026965,-0.3799596072289332,0.2955795383025683,0.2702771672930147,-0.02028213394453752,-0.08756117974271958,0.3864872180943952,1.243204832586771,0.6058025558558341,0.08432270855011,1.086770343856975,0.4507008924403884,0.03566650500244399,-0.09243532447580784,0.4991289059264025,-0.1761001175323106,-0.08821227043138569,-0.5173319796782446,-0.1141232544122579,811.0989010989011,786.9230769230769,788.1318681318681,795.7875457875458,711.978021978022,511.7216117216117,-0.076355,0.055481,0.989014,-0.306549,-1.061707,0.261688,1,1,1,1,1,88.000000
2024-05-15 12:29:14.724 AM,0.4512880453400496,-0.2818810931026965,-0.3799596072289332,0.2955795383025683,0.2702771672930147,-0.02028213394453752,-0.08756117974271958,0.3864872180943952,1.243204832586771,0.6058025558558341,0.08432270855011,1.086770343856975,0.4507008924403884,0.03566650500244399,-0.09243532447580784,0.4991289059264025,-0.1761001175323106,-0.08821227043138569,-0.5173319796782446,-0.1141232544122579,817.948717948718,782.4908424908425,790.5494505494506,790.952380952381,664.0293040293041,275.2014652014652,-0.076355,0.055481,0.989014,-0.306549,-1.061707,0.261688,1,1,1,1,1,88.000000
2024-05-15 12:29:14.725 AM,0.4512880453400496,-0.2818810931026965,-0.3799596072289332,0.2955795383025683,0.2702771672930147,-0.02028213394453752,-0.08756117974271958,0.3864872180943952,1.243204832586771,0.6058025558558341,0.08432270855011,1.086770343856975,0.4507008924403884,0.03566650500244399,-0.09243532447580784,0.4991289059264025,-0.1761001175323106,-0.08821227043138569,-0.5173319796782446,-0.1141232544122579,835.6776556776557,807.0695970695971,802.2344322344322,840.1098901098901,779.2673992673992,485.1282051282051,-0.076355,0.055481,0.989014,-0.306549,-1.061707,0.261688,1,1,1,1,1,88.000000
2024-05-15 12:29:14.725 AM,0.4512880453400496,-0.2818810931026965,-0.3799596072289332,0.2955795383025683,0.2702771672930147,-0.02028213394453752,-0.08756117974271958,0.3864872180943952,1.243204832586771,0.6058025558558341,0.08432270855011,1.086770343856975,0.4507008924403884,0.03566650500244399,-0.09243532447580784,0.4991289059264025,-0.1761001175323106,-0.08821227043138569,-0.5173319796782446,-0.1141232544122579,836.8864468864469,826.8131868131868,809.4871794871796,874.7619047619048,897.7289377289378,891.6849816849817,-0.076355,0.055481,0.989014,-0.306549,-1.061707,0.261688,1,1,1,1,1,88.000000
2024-05-15 12:29:14.725 AM,0.4512880453400496,-0.2818810931026965,-0.3799596072289332,0.2955795383025683,0.2702771672930147,-0.02028213394453752,-0.08756117974271958,0.3864872180943952,1.243204832586771,0.6058025558558341,0.08432270855011,1.086770343856975,0.4507008924403884,0.03566650500244399,-0.09243532447580784,0.4991289059264025,-0.1761001175323106,-0.08821227043138569,-0.5173319796782446,-0.1141232544122579,827.2161172161173,815.934065934066,799.4139194139194,843.7362637362637,887.2527472527473,916.6666666666667,-0.076355,0.055481,0.989014,-0.306549,-1.061707,0.261688,1,1,1,1,1,88.000000
2024-05-15 12:29:14.725 AM,0.4512880453400496,-0.2818810931026965,-0.3799596072289332,0.2955795383025683,0.2702771672930147,-0.02028213394453752,-0.08756117974271958,0.3864872180943952,1.243204832586771,0.6058025558558341,0.08432270855011,1.086770343856975,0.4507008924403884,0.03566650500244399,-0.09243532447580784,0.4991289059264025,-0.1761001175323106,-0.08821227043138569,-0.5173319796782446,-0.1141232544122579,813.919413919414,793.7728937728938,786.1172161172161,790.1465201465202,795.3846153846154,845.3479853479854,-0.076355,0.055481,0.989014,-0.306549,-1.061707,0.261688,1,1,1,1,1,88.000000
2024-05-15 12:29:14.726 AM,0.4512880453400496,-0.2818810931026965,-0.3799596072289332,0.2955795383025683,0.2702771672930147,-0.02028213394453752,-0.08756117974271958,0.3864872180943952,1.243204832586771,0.6058025558558341,0.08432270855011,1.086770343856975,0.4507008924403884,0.03566650500244399,-0.09243532447580784,0.4991289059264025,-0.1761001175323106,-0.08821227043138569,-0.5173319796782446,-0.1141232544122579,813.1135531135532,788.9377289377289,787.3260073260074,788.1318681318681,724.0659340659341,883.6263736263736,-0.076355,0.055481,0.989014,-0.306549,-1.061707,0.261688,1,1,1,1,1,88.000000
2024-05-15 12:29:14.726 AM,0.4512880453400496,-0.2818810931026965,-0.3799596072289332,0.2955795383025683,0.2702771672930147,-0.02028213394453752,-0.08756117974271958,0.3864872180943952,1.243204832586771,0.6058025558558341,0.08432270855011,1.086770343856975,0.4507008924403884,0.03566650500244399,-0.09243532447580784,0.4991289059264025,-0.1761001175323106,-0.08821227043138569,-0.5173319796782446,-0.1141232544122579,831.6483516483516,805.8608058608058,796.5934065934066,836.4835164835165,740.989010989011,1074.615384615385,-0.076355,0.055481,0.989014,-0.306549,-1.061707,0.261688,1,1,1,1,1,88.000000
2024-05-15 12:29:14.726 AM,0.4512880453400496,-0.2818810931026965,-0.3799596072289332,0.2955795383025683,0.2702771672930147,-0.02028213394453752,-0.08756117974271958,0.3864872180943952,1.243204832586771,0.6058025558558341,0.08432270855011,1.086770343856975,0.4507008924403884,0.03566650500244399,-0.09243532447580784,0.4991289059264025,-0.1761001175323106,-0.08821227043138569,-0.5173319796782446,-0.1141232544122579,836.4835164835165,817.948717948718,802.6373626373627,870.7326007326008,856.6300366300367,1062.124542124542,-0.076355,0.055481,0.989014,-0.306549,-1.061707,0.261688,1,1,1,1,1,88.000000
2024-05-15 12:29:14.726 AM,0.4512880453400496,-0.2818810931026965,-0.3799596072289332,0.2955795383025683,0.2702771672930147,-0.02028213394453752,-0.08756117974271958,0.3864872180943952,1.243204832586771,0.6058025558558341,0.08432270855011,1.086770343856975,0.4507008924403884,0.03566650500244399,-0.09243532447580784,0.4991289059264025,-0.1761001175323106,-0.08821227043138569,-0.5173319796782446,-0.1141232544122579,819.96336996337,807.4725274725275,801.025641025641,850.1831501831502,917.4725274725275,836.8864468864469,-0.076355,0.055481,0.989014,-0.306549,-1.061707,0.261688,1,1,1,1,1,88.000000
2024-05-15 12:29:14.727 AM,0.4512880453400496,-0.2818810931026965,-0.3799596072289332,0.2955795383025683,0.2702771672930147,-0.02028213394453752,-0.08756117974271958,0.3864872180943952,1.243204832586771,0.6058025558558341,0.08432270855011,1.086770343856975,0.4507008924403884,0.03566650500244399,-0.09243532447580784,0.4991289059264025,-0.1761001175323106,-0.08821227043138569,-0.5173319796782446,-0.1141232544122579,799.0109890109891,785.3113553113553,793.3699633699634,798.2051282051282,815.5311355311355,592.3076923076924,-0.076355,0.055481,0.989014,-0.306549,-1.061707,0.261688,1,1,1,1,1,88.000000
2024-05-15 12:29:14.727 AM,0.4512880453400496,-0.2818810931026965,-0.3799596072289332,0.2955795383025683,0.2702771672930147,-0.02028213394453752,-0.08756117974271958,0.3864872180943952,1.243204832586771,0.6058025558558341,0.08432270855011,1.086770343856975,0.4507008924403884,0.03566650500244399,-0.09243532447580784,0.4991289059264025,-0.1761001175323106,-0.08821227043138569,-0.5173319796782446,-0.1141232544122579,799.0109890109891,778.4615384615385,794.1758241758242,778.4615384615385,702.3076923076924,398.0952380952381,-0.076355,0.055481,0.989014,-0.306549,-1.061707,0.261688,1,1,1,1,1,88.000000
2024-05-15 12:29:14.727 AM,0.4512880453400496,-0.2818810931026965,-0.3799596072289332,0.2955795383025683,0.2702771672930147,-0.02028213394453752,-0.08756117974271958,0.3864872180943952,1.243204832586771,0.6058025558558341,0.08432270855011,1.086770343856975,0.4507008924403884,0.03566650500244399,-0.09243532447580784,0.4991289059264025,-0.1761001175323106,-0.08821227043138569,-0.5173319796782446,-0.1141232544122579,815.5311355311355,794.5787545787546,802.2344322344322,815.1282051282052,738.5714285714286,528.2417582417582,-0.076355,0.055481,0.989014,-0.306549,-1.061707,0.261688,1,1,1,1,1,88.000000
2024-05-15 12:29:14.749 AM,0.4512880453400496,-0.2818810931026965,-0.3799596072289332,0.2955795383025683,0.2702771672930147,-0.02028213394453752,-0.08756117974271958,0.3864872180943952,1.243204832586771,0.6058025558558341,0.08432270855011,1.086770343856975,0.4507008924403884,0.03566650500244399,-0.09243532447580784,0.4991289059264025,-0.1761001175323106,-0.08821227043138569,-0.5173319796782446,-0.1141232544122579,823.5897435897436,813.1135531135532,805.0549450549451,854.2124542124542,824.7985347985348,701.0989010989011,-0.079895,0.051453,0.992310,0.224304,-1.106567,0.500946,1,1,1,1,1,88.000000
2024-05-15 12:29:14.749 AM,0.4512880453400496,-0.2818810931026965,-0.3799596072289332,0.2955795383025683,0.2702771672930147,-0.02028213394453752,-0.08756117974271958,0.3864872180943952,1.243204832586771,0.6058025558558341,0.08432270855011,1.086770343856975,0.4507008924403884,0.03566650500244399,-0.09243532447580784,0.4991289059264025,-0.1761001175323106,-0.08821227043138569,-0.5173319796782446,-0.1141232544122579,814.3223443223443,809.8901098901099,802.2344322344322,844.5421245421246,861.0622710622711,772.8205128205128,-0.079895,0.051453,0.992310,0.224304,-1.106567,0.500946,1,1,1,1,1,88.000000
2024-05-15 12:29:14.749 AM,0.4512880453400496,-0.2818810931026965,-0.3799596072289332,0.2955795383025683,0.2702771672930147,-0.02028213394453752,-0.08756117974271958,0.3864872180943952,1.243204832586771,0.6058025558558341,0.08432270855011,1.086770343856975,0.4507008924403884,0.03566650500244399,-0.09243532447580784,0.4991289059264025,-0.1761001175323106,-0.08821227043138569,-0.5173319796782446,-0.1141232544122579,796.996336996337,790.1465201465202,797.3992673992674,796.1904761904763,826.8131868131868,722.0512820512821,-0.079895,0.051453,0.992310,0.224304,-1.106567,0.500946,1,1,1,1,1,88.000000
2024-05-15 12:29:14.750 AM,0.4512880453400496,-0.2818810931026965,-0.3799596072289332,0.2955795383025683,0.2702771672930147,-0.02028213394453752,-0.08756117974271958,0.3864872180943952,1.243204832586771,0.6058025558558341,0.08432270855011,1.086770343856975,0.4507008924403884,0.03566650500244399,-0.09243532447580784,0.4991289059264025,-0.1761001175323106,-0.08821227043138569,-0.5173319796782446,-0.1141232544122579,794.1758241758242,781.2820512820513,796.1904761904763,777.6556776556777,747.8388278388279,481.9047619047619,-0.079895,0.051453,0.992310,0.224304,-1.106567,0.500946,1,1,1,1,1,88.000000
2024-05-15 12:29:14.750 AM,0.4512880453400496,-0.2818810931026965,-0.3799596072289332,0.2955795383025683,0.2702771672930147,-0.02028213394453752,-0.08756117974271958,0.3864872180943952,1.243204832586771,0.6058025558558341,0.08432270855011,1.086770343856975,0.4507008924403884,0.03566650500244399,-0.09243532447580784,0.4991289059264025,-0.1761001175323106,-0.08821227043138569,-0.5173319796782446,-0.1141232544122579,811.5018315018315,794.981684981685,805.0549450549451,818.3516483516484,748.6446886446887,550.8058608058608,-0.079895,0.051453,0.992310,0.224304,-1.106567,0.500946,1,1,1,1,1,88.000000
2024-05-15 12:29:14.750 AM,0.4512880453400496,-0.2818810931026965,-0.3799596072289332,0.2955795383025683,0.2702771672930147,-0.02028213394453752,-0.08756117974271958,0.3864872180943952,1.243204832586771,0.6058025558558341,0.08432270855011,1.086770343856975,0.4507008924403884,0.03566650500244399,-0.09243532447580784,0.4991289059264025,-0.1761001175323106,-0.08821227043138569,-0.5173319796782446,-0.1141232544122579,824.3956043956044,814.3223443223443,811.5018315018315,860.6593406593407,805.0549450549451,1080.25641025641,-0.079895,0.051453,0.992310,0.224304,-1.106567,0.500946,1,1,1,1,1,88.000000
2024-05-15 12:29:14.750 AM,0.4512880453400496,-0.2818810931026965,-0.3799596072289332,0.2955795383025683,0.2702771672930147,-0.02028213394453752,-0.08756117974271958,0.3864872180943952,1.243204832586771,0.6058025558558341,0.08432270855011,1.086770343856975,0.4507008924403884,0.03566650500244399,-0.09243532447580784,0.4991289059264025,-0.1761001175323106,-0.08821227043138569,-0.5173319796782446,-0.1141232544122579,814.7252747252747,816.3369963369963,806.6666666666667,852.6007326007326,851.3919413919414,1324.029304029304,-0.079895,0.051453,0.992310,0.224304,-1.106567,0.500946,1,1,1,1,1,88.000000
2024-05-15 12:29:14.751 AM,0.4512880453400496,-0.2818810931026965,-0.3799596072289332,0.2955795383025683,0.2702771672930147,-0.02028213394453752,-0.08756117974271958,0.3864872180943952,1.243204832586771,0.6058025558558341,0.08432270855011,1.086770343856975,0.4507008924403884,0.03566650500244399,-0.09243532447580784,0.4991289059264025,-0.1761001175323106,-0.08821227043138569,-0.5173319796782446,-0.1141232544122579,793.7728937728938,794.1758241758242,796.5934065934066,804.2490842490843,817.1428571428571,1116.117216117216,-0.079895,0.051453,0.992310,0.224304,-1.106567,0.500946,1,1,1,1,1,88.000000
2024-05-15 12:29:14.751 AM,0.4512880453400496,-0.2818810931026965,-0.3799596072289332,0.2955795383025683,0.2702771672930147,-0.02028213394453752,-0.08756117974271958,0.3864872180943952,1.243204832586771,0.6058025558558341,0.08432270855011,1.086770343856975,0.4507008924403884,0.03566650500244399,-0.09243532447580784,0.4991289059264025,-0.1761001175323106,-0.08821227043138569,-0.5173319796782446,-0.1141232544122579,795.7875457875458,780.8791208791209,792.1611721611722,778.8644688644689,772.014652014652,950.9157509157509,-0.079895,0.051453,0.992310,0.224304,-1.106567,0.500946,1,1,1,1,1,88.000000
2024-05-15 12:29:14.752 AM,,,,,,,,,,,,,,,,,,,,,,,,,,,,,,,,,,,,,,,/muse/elements/blink
2024-05-15 12:29:14.751 AM,0.4755362633588909,-0.2528084540875763,-0.375366372284361,0.2673260993403482,0.2951071329930954,0.05300936735188938,-0.09597259610818759,0.3898104897829383,1.243204832586771,0.6058025558558341,0.09691925401049672,1.086770343856975,0.4481958596299037,0.06207019073420746,-0.1024106445989508,0.5092846704420462,-0.167733788645123,-0.07615249020295202,-0.5286058048934155,-0.1016540455555157,814.3223443223443,792.1611721611722,800.2197802197802,801.8315018315019,809.4871794871796,739.3772893772893,-0.079895,0.051453,0.992310,0.224304,-1.106567,0.500946,1,1,1,1,1,88.000000
2024-05-15 12:29:14.752 AM,0.4755362633588909,-0.2528084540875763,-0.375366372284361,0.2673260993403482,0.2951071329930954,0.05300936735188938,-0.09597259610818759,0.3898104897829383,1.243204832586771,0.6058025558558341,0.09691925401049672,1.086770343856975,0.4481958596299037,0.06207019073420746,-0.1024106445989508,0.5092846704420462,-0.167733788645123,-0.07615249020295202,-0.5286058048934155,-0.1016540455555157,828.021978021978,811.9047619047619,809.4871794871796,848.5714285714286,874.7619047619048,748.6446886446887,-0.079895,0.051453,0.992310,0.224304,-1.106567,0.500946,1,1,1,1,1,88.000000
2024-05-15 12:29:14.752 AM,0.4755362633588909,-0.2528084540875763,-0.375366372284361,0.2673260993403482,0.2951071329930954,0.05300936735188938,-0.09597259610818759,0.3898104897829383,1.243204832586771,0.6058025558558341,0.09691925401049672,1.086770343856975,0.4481958596299037,0.06207019073420746,-0.1024106445989508,0.5092846704420462,-0.167733788645123,-0.07615249020295202,-0.5286058048934155,-0.1016540455555157,819.5604395604396,811.9047619047619,806.2637362637363,858.6446886446887,918.2783882783883,918.6813186813187,-0.079895,0.051453,0.992310,0.224304,-1.106567,0.500946,1,1,1,1,1,88.000000
2024-05-15 12:29:14.796 AM,0.4755362633588909,-0.2528084540875763,-0.375366372284361,0.2673260993403482,0.2951071329930954,0.05300936735188938,-0.09597259610818759,0.3898104897829383,1.243204832586771,0.6058025558558341,0.09691925401049672,1.086770343856975,0.4481958596299037,0.06207019073420746,-0.1024106445989508,0.5092846704420462,-0.167733788645123,-0.07615249020295202,-0.5286058048934155,-0.1016540455555157,796.996336996337,790.5494505494506,796.996336996337,813.1135531135532,887.6556776556777,784.5054945054945,-0.077698,0.048584,0.993286,-0.007477,-1.846771,0.530853,1,1,1,1,1,88.000000
2024-05-15 12:29:14.797 AM,0.4755362633588909,-0.2528084540875763,-0.375366372284361,0.2673260993403482,0.2951071329930954,0.05300936735188938,-0.09597259610818759,0.3898104897829383,1.243204832586771,0.6058025558558341,0.09691925401049672,1.086770343856975,0.4481958596299037,0.06207019073420746,-0.1024106445989508,0.5092846704420462,-0.167733788645123,-0.07615249020295202,-0.5286058048934155,-0.1016540455555157,794.981684981685,776.0439560439561,790.952380952381,780.4761904761905,821.1721611721612,556.8498168498169,-0.077698,0.048584,0.993286,-0.007477,-1.846771,0.530853,1,1,1,1,1,88.000000
2024-05-15 12:29:14.797 AM,0.4755362633588909,-0.2528084540875763,-0.375366372284361,0.2673260993403482,0.2951071329930954,0.05300936735188938,-0.09597259610818759,0.3898104897829383,1.243204832586771,0.6058025558558341,0.09691925401049672,1.086770343856975,0.4481958596299037,0.06207019073420746,-0.1024106445989508,0.5092846704420462,-0.167733788645123,-0.07615249020295202,-0.5286058048934155,-0.1016540455555157,811.0989010989011,788.1318681318681,799.0109890109891,804.2490842490843,828.8278388278388,566.9230769230769,-0.077698,0.048584,0.993286,-0.007477,-1.846771,0.530853,1,1,1,1,1,88.000000
2024-05-15 12:29:14.797 AM,0.4755362633588909,-0.2528084540875763,-0.375366372284361,0.2673260993403482,0.2951071329930954,0.05300936735188938,-0.09597259610818759,0.3898104897829383,1.243204832586771,0.6058025558558341,0.09691925401049672,1.086770343856975,0.4481958596299037,0.06207019073420746,-0.1024106445989508,0.5092846704420462,-0.167733788645123,-0.07615249020295202,-0.5286058048934155,-0.1016540455555157,824.7985347985348,811.0989010989011,811.9047619047619,853.8095238095239,828.4249084249085,728.901098901099,-0.077698,0.048584,0.993286,-0.007477,-1.846771,0.530853,1,1,1,1,1,88.000000
2024-05-15 12:29:14.798 AM,0.4755362633588909,-0.2528084540875763,-0.375366372284361,0.2673260993403482,0.2951071329930954,0.05300936735188938,-0.09597259610818759,0.3898104897829383,1.243204832586771,0.6058025558558341,0.09691925401049672,1.086770343856975,0.4481958596299037,0.06207019073420746,-0.1024106445989508,0.5092846704420462,-0.167733788645123,-0.07615249020295202,-0.5286058048934155,-0.1016540455555157,821.5750915750916,815.1282051282052,810.2930402930403,865.8974358974359,823.5897435897436,810.6959706959707,-0.077698,0.048584,0.993286,-0.007477,-1.846771,0.530853,1,1,1,1,1,88.000000
2024-05-15 12:29:14.798 AM,0.4755362633588909,-0.2528084540875763,-0.375366372284361,0.2673260993403482,0.2951071329930954,0.05300936735188938,-0.09597259610818759,0.3898104897829383,1.243204832586771,0.6058025558558341,0.09691925401049672,1.086770343856975,0.4481958596299037,0.06207019073420746,-0.1024106445989508,0.5092846704420462,-0.167733788645123,-0.07615249020295202,-0.5286058048934155,-0.1016540455555157,807.4725274725275,799.4139194139194,799.8168498168499,826.4102564102565,819.96336996337,1005.311355311355,-0.077698,0.048584,0.993286,-0.007477,-1.846771,0.530853,1,1,1,1,1,88.000000
2024-05-15 12:29:14.798 AM,0.4755362633588909,-0.2528084540875763,-0.375366372284361,0.2673260993403482,0.2951071329930954,0.05300936735188938,-0.09597259610818759,0.3898104897829383,1.243204832586771,0.6058025558558341,0.09691925401049672,1.086770343856975,0.4481958596299037,0.06207019073420746,-0.1024106445989508,0.5092846704420462,-0.167733788645123,-0.07615249020295202,-0.5286058048934155,-0.1016540455555157,802.6373626373627,783.6996336996338,793.3699633699634,782.4908424908425,734.1391941391942,1007.326007326007,-0.077698,0.048584,0.993286,-0.007477,-1.846771,0.530853,1,1,1,1,1,88.000000
2024-05-15 12:29:14.798 AM,0.4755362633588909,-0.2528084540875763,-0.375366372284361,0.2673260993403482,0.2951071329930954,0.05300936735188938,-0.09597259610818759,0.3898104897829383,1.243204832586771,0.6058025558558341,0.09691925401049672,1.086770343856975,0.4481958596299037,0.06207019073420746,-0.1024106445989508,0.5092846704420462,-0.167733788645123,-0.07615249020295202,-0.5286058048934155,-0.1016540455555157,805.8608058608058,786.5201465201466,795.7875457875458,791.7582417582418,718.021978021978,705.934065934066,-0.077698,0.048584,0.993286,-0.007477,-1.846771,0.530853,1,1,1,1,1,88.000000
2024-05-15 12:29:14.799 AM,0.4755362633588909,-0.2528084540875763,-0.375366372284361,0.2673260993403482,0.2951071329930954,0.05300936735188938,-0.09597259610818759,0.3898104897829383,1.243204832586771,0.6058025558558341,0.09691925401049672,1.086770343856975,0.4481958596299037,0.06207019073420746,-0.1024106445989508,0.5092846704420462,-0.167733788645123,-0.07615249020295202,-0.5286058048934155,-0.1016540455555157,809.4871794871796,802.6373626373627,806.6666666666667,840.5128205128206,785.7142857142858,586.6666666666666,-0.077698,0.048584,0.993286,-0.007477,-1.846771,0.530853,1,1,1,1,1,88.000000
2024-05-15 12:29:14.799 AM,0.4755362633588909,-0.2528084540875763,-0.375366372284361,0.2673260993403482,0.2951071329930954,0.05300936735188938,-0.09597259610818759,0.3898104897829383,1.243204832586771,0.6058025558558341,0.09691925401049672,1.086770343856975,0.4481958596299037,0.06207019073420746,-0.1024106445989508,0.5092846704420462,-0.167733788645123,-0.07615249020295202,-0.5286058048934155,-0.1016540455555157,808.6813186813187,816.7399267399268,809.8901098901099,860.6593406593407,841.7216117216118,920.2930402930403,-0.077698,0.048584,0.993286,-0.007477,-1.846771,0.530853,1,1,1,1,1,88.000000
2024-05-15 12:29:14.799 AM,0.4755362633588909,-0.2528084540875763,-0.375366372284361,0.2673260993403482,0.2951071329930954,0.05300936735188938,-0.09597259610818759,0.3898104897829383,1.243204832586771,0.6058025558558341,0.09691925401049672,1.086770343856975,0.4481958596299037,0.06207019073420746,-0.1024106445989508,0.5092846704420462,-0.167733788645123,-0.07615249020295202,-0.5286058048934155,-0.1016540455555157,793.7728937728938,803.040293040293,797.8021978021978,819.1575091575091,794.981684981685,849.3772893772895,-0.077698,0.048584,0.993286,-0.007477,-1.846771,0.530853,1,1,1,1,1,88.000000
2024-05-15 12:29:14.799 AM,0.4755362633588909,-0.2528084540875763,-0.375366372284361,0.2673260993403482,0.2951071329930954,0.05300936735188938,-0.09597259610818759,0.3898104897829383,1.243204832586771,0.6058025558558341,0.09691925401049672,1.086770343856975,0.4481958596299037,0.06207019073420746,-0.1024106445989508,0.5092846704420462,-0.167733788645123,-0.07615249020295202,-0.5286058048934155,-0.1016540455555157,783.6996336996338,778.4615384615385,790.5494505494506,772.8205128205128,747.4358974358975,513.3333333333334,-0.077698,0.048584,0.993286,-0.007477,-1.846771,0.530853,1,1,1,1,1,88.000000
2024-05-15 12:29:14.843 AM,0.4755362633588909,-0.2528084540875763,-0.375366372284361,0.2673260993403482,0.2951071329930954,0.05300936735188938,-0.09597259610818759,0.3898104897829383,1.243204832586771,0.6058025558558341,0.09691925401049672,1.086770343856975,0.4481958596299037,0.06207019073420746,-0.1024106445989508,0.5092846704420462,-0.167733788645123,-0.07615249020295202,-0.5286058048934155,-0.1016540455555157,799.4139194139194,782.0879120879121,792.5641025641025,788.9377289377289,730.9157509157509,477.4725274725275,-0.076599,0.054749,0.995544,0.194397,-1.390686,0.613098,1,1,1,1,1,88.000000
2024-05-15 12:29:14.843 AM,0.4755362633588909,-0.2528084540875763,-0.375366372284361,0.2673260993403482,0.2951071329930954,0.05300936735188938,-0.09597259610818759,0.3898104897829383,1.243204832586771,0.6058025558558341,0.09691925401049672,1.086770343856975,0.4481958596299037,0.06207019073420746,-0.1024106445989508,0.5092846704420462,-0.167733788645123,-0.07615249020295202,-0.5286058048934155,-0.1016540455555157,816.3369963369963,803.040293040293,798.2051282051282,836.4835164835165,788.9377289377289,671.6849816849817,-0.076599,0.054749,0.995544,0.194397,-1.390686,0.613098,1,1,1,1,1,88.000000
2024-05-15 12:29:14.844 AM,0.4755362633588909,-0.2528084540875763,-0.375366372284361,0.2673260993403482,0.2951071329930954,0.05300936735188938,-0.09597259610818759,0.3898104897829383,1.243204832586771,0.6058025558558341,0.09691925401049672,1.086770343856975,0.4481958596299037,0.06207019073420746,-0.1024106445989508,0.5092846704420462,-0.167733788645123,-0.07615249020295202,-0.5286058048934155,-0.1016540455555157,814.7252747252747,812.7106227106227,796.1904761904763,853.4065934065934,872.3443223443223,917.8754578754579,-0.076599,0.054749,0.995544,0.194397,-1.390686,0.613098,1,1,1,1,1,88.000000
2024-05-15 12:29:14.844 AM,0.4755362633588909,-0.2528084540875763,-0.375366372284361,0.2673260993403482,0.2951071329930954,0.05300936735188938,-0.09597259610818759,0.3898104897829383,1.243204832586771,0.6058025558558341,0.09691925401049672,1.086770343856975,0.4481958596299037,0.06207019073420746,-0.1024106445989508,0.5092846704420462,-0.167733788645123,-0.07615249020295202,-0.5286058048934155,-0.1016540455555157,802.6373626373627,799.0109890109891,787.7289377289378,826.8131868131868,836.4835164835165,849.3772893772895,-0.076599,0.054749,0.995544,0.194397,-1.390686,0.613098,1,1,1,1,1,88.000000
2024-05-15 12:29:14.844 AM,0.4755362633588909,-0.2528084540875763,-0.375366372284361,0.2673260993403482,0.2951071329930954,0.05300936735188938,-0.09597259610818759,0.3898104897829383,1.243204832586771,0.6058025558558341,0.09691925401049672,1.086770343856975,0.4481958596299037,0.06207019073420746,-0.1024106445989508,0.5092846704420462,-0.167733788645123,-0.07615249020295202,-0.5286058048934155,-0.1016540455555157,795.3846153846154,778.8644688644689,786.1172161172161,784.9084249084249,748.2417582417582,590.2930402930403,-0.076599,0.054749,0.995544,0.194397,-1.390686,0.613098,1,1,1,1,1,88.000000
2024-05-15 12:29:14.844 AM,0.4755362633588909,-0.2528084540875763,-0.375366372284361,0.2673260993403482,0.2951071329930954,0.05300936735188938,-0.09597259610818759,0.3898104897829383,1.243204832586771,0.6058025558558341,0.09691925401049672,1.086770343856975,0.4481958596299037,0.06207019073420746,-0.1024106445989508,0.5092846704420462,-0.167733788645123,-0.07615249020295202,-0.5286058048934155,-0.1016540455555157,802.2344322344322,783.6996336996338,790.952380952381,782.893772893773,713.1868131868132,738.974358974359,-0.076599,0.054749,0.995544,0.194397,-1.390686,0.613098,1,1,1,1,1,88.000000
2024-05-15 12:29:14.845 AM,0.4755362633588909,-0.2528084540875763,-0.375366372284361,0.2673260993403482,0.2951071329930954,0.05300936735188938,-0.09597259610818759,0.3898104897829383,1.243204832586771,0.6058025558558341,0.09691925401049672,1.086770343856975,0.4481958596299037,0.06207019073420746,-0.1024106445989508,0.5092846704420462,-0.167733788645123,-0.07615249020295202,-0.5286058048934155,-0.1016540455555157,820.7692307692308,804.6520146520147,798.6080586080586,832.0512820512821,771.6117216117216,1029.084249084249,-0.076599,0.054749,0.995544,0.194397,-1.390686,0.613098,1,1,1,1,1,88.000000
2024-05-15 12:29:14.845 AM,0.4755362633588909,-0.2528084540875763,-0.375366372284361,0.2673260993403482,0.2951071329930954,0.05300936735188938,-0.09597259610818759,0.3898104897829383,1.243204832586771,0.6058025558558341,0.09691925401049672,1.086770343856975,0.4481958596299037,0.06207019073420746,-0.1024106445989508,0.5092846704420462,-0.167733788645123,-0.07615249020295202,-0.5286058048934155,-0.1016540455555157,815.1282051282052,817.948717948718,801.8315018315019,865.8974358974359,867.9120879120879,1375.604395604396,-0.076599,0.054749,0.995544,0.194397,-1.390686,0.613098,1,1,1,1,1,88.000000
2024-05-15 12:29:14.845 AM,0.4755362633588909,-0.2528084540875763,-0.375366372284361,0.2673260993403482,0.2951071329930954,0.05300936735188938,-0.09597259610818759,0.3898104897829383,1.243204832586771,0.6058025558558341,0.09691925401049672,1.086770343856975,0.4481958596299037,0.06207019073420746,-0.1024106445989508,0.5092846704420462,-0.167733788645123,-0.07615249020295202,-0.5286058048934155,-0.1016540455555157,794.1758241758242,802.2344322344322,799.8168498168499,830.8424908424909,826.007326007326,1032.307692307692,-0.076599,0.054749,0.995544,0.194397,-1.390686,0.613098,1,1,1,1,1,88.000000
2024-05-15 12:29:14.846 AM,0.4755362633588909,-0.2528084540875763,-0.375366372284361,0.2673260993403482,0.2951071329930954,0.05300936735188938,-0.09597259610818759,0.3898104897829383,1.243204832586771,0.6058025558558341,0.09691925401049672,1.086770343856975,0.4481958596299037,0.06207019073420746,-0.1024106445989508,0.5092846704420462,-0.167733788645123,-0.07615249020295202,-0.5286058048934155,-0.1016540455555157,788.5347985347986,776.8498168498169,795.3846153846154,775.6410256410256,728.901098901099,521.7948717948718,-0.076599,0.054749,0.995544,0.194397,-1.390686,0.613098,1,1,1,1,1,88.000000
2024-05-15 12:29:14.846 AM,0.4755362633588909,-0.2528084540875763,-0.375366372284361,0.2673260993403482,0.2951071329930954,0.05300936735188938,-0.09597259610818759,0.3898104897829383,1.243204832586771,0.6058025558558341,0.09691925401049672,1.086770343856975,0.4481958596299037,0.06207019073420746,-0.1024106445989508,0.5092846704420462,-0.167733788645123,-0.07615249020295202,-0.5286058048934155,-0.1016540455555157,795.3846153846154,778.4615384615385,796.996336996337,771.6117216117216,724.8717948717949,551.2087912087912,-0.076599,0.054749,0.995544,0.194397,-1.390686,0.613098,1,1,1,1,1,88.000000
2024-05-15 12:29:14.846 AM,0.49763657036925,-0.2074976464220598,-0.3627787524543722,0.2381742082554824,0.3189003929351719,0.104288560412664,-0.09830599315604974,0.3975463922665677,1.243204832586771,0.6058025558558341,0.1405711053519524,1.086770343856975,0.4419856211011968,0.08588882220883946,-0.1022988864651389,0.5224018060143569,-0.1581933538802771,-0.06597662470871347,-0.5321634827367864,-0.08497956836062008,812.7106227106227,803.8461538461539,803.8461538461539,815.1282051282052,798.6080586080586,785.3113553113553,-0.076599,0.054749,0.995544,0.194397,-1.390686,0.613098,1,1,1,1,1,88.000000
2024-05-15 12:29:14.889 AM,0.49763657036925,-0.2074976464220598,-0.3627787524543722,0.2381742082554824,0.3189003929351719,0.104288560412664,-0.09830599315604974,0.3975463922665677,1.243204832586771,0.6058025558558341,0.1405711053519524,1.086770343856975,0.4419856211011968,0.08588882220883946,-0.1022988864651389,0.5224018060143569,-0.1581933538802771,-0.06597662470871347,-0.5321634827367864,-0.08497956836062008,821.978021978022,818.3516483516484,807.4725274725275,848.5714285714286,919.4871794871796,1001.282051282051,-0.079468,0.051453,1.001526,-0.284119,-0.687866,0.336456,1,1,1,1,1,88.000000
2024-05-15 12:29:14.890 AM,0.49763657036925,-0.2074976464220598,-0.3627787524543722,0.2381742082554824,0.3189003929351719,0.104288560412664,-0.09830599315604974,0.3975463922665677,1.243204832586771,0.6058025558558341,0.1405711053519524,1.086770343856975,0.4419856211011968,0.08588882220883946,-0.1022988864651389,0.5224018060143569,-0.1581933538802771,-0.06597662470871347,-0.5321634827367864,-0.08497956836062008,813.5164835164835,804.2490842490843,800.2197802197802,827.2161172161173,945.2747252747253,865.0915750915751,-0.079468,0.051453,1.001526,-0.284119,-0.687866,0.336456,1,1,1,1,1,88.000000
2024-05-15 12:29:14.890 AM,0.49763657036925,-0.2074976464220598,-0.3627787524543722,0.2381742082554824,0.3189003929351719,0.104288560412664,-0.09830599315604974,0.3975463922665677,1.243204832586771,0.6058025558558341,0.1405711053519524,1.086770343856975,0.4419856211011968,0.08588882220883946,-0.1022988864651389,0.5224018060143569,-0.1581933538802771,-0.06597662470871347,-0.5321634827367864,-0.08497956836062008,809.0842490842491,786.1172161172161,788.9377289377289,781.2820512820513,871.1355311355312,712.3809523809524,-0.079468,0.051453,1.001526,-0.284119,-0.687866,0.336456,1,1,1,1,1,88.000000
2024-05-15 12:29:14.890 AM,0.49763657036925,-0.2074976464220598,-0.3627787524543722,0.2381742082554824,0.3189003929351719,0.104288560412664,-0.09830599315604974,0.3975463922665677,1.243204832586771,0.6058025558558341,0.1405711053519524,1.086770343856975,0.4419856211011968,0.08588882220883946,-0.1022988864651389,0.5224018060143569,-0.1581933538802771,-0.06597662470871347,-0.5321634827367864,-0.08497956836062008,809.4871794871796,779.6703296703297,789.3406593406594,772.014652014652,792.5641025641025,593.1135531135532,-0.079468,0.051453,1.001526,-0.284119,-0.687866,0.336456,1,1,1,1,1,88.000000
2024-05-15 12:29:14.891 AM,0.49763657036925,-0.2074976464220598,-0.3627787524543722,0.2381742082554824,0.3189003929351719,0.104288560412664,-0.09830599315604974,0.3975463922665677,1.243204832586771,0.6058025558558341,0.1405711053519524,1.086770343856975,0.4419856211011968,0.08588882220883946,-0.1022988864651389,0.5224018060143569,-0.1581933538802771,-0.06597662470871347,-0.5321634827367864,-0.08497956836062008,811.9047619047619,791.7582417582418,797.3992673992674,810.2930402930403,835.2747252747253,646.7032967032967,-0.079468,0.051453,1.001526,-0.284119,-0.687866,0.336456,1,1,1,1,1,88.000000
2024-05-15 12:29:14.891 AM,0.49763657036925,-0.2074976464220598,-0.3627787524543722,0.2381742082554824,0.3189003929351719,0.104288560412664,-0.09830599315604974,0.3975463922665677,1.243204832586771,0.6058025558558341,0.1405711053519524,1.086770343856975,0.4419856211011968,0.08588882220883946,-0.1022988864651389,0.5224018060143569,-0.1581933538802771,-0.06597662470871347,-0.5321634827367864,-0.08497956836062008,821.5750915750916,813.919413919414,803.040293040293,851.3919413919414,926.3369963369963,1114.102564102564,-0.079468,0.051453,1.001526,-0.284119,-0.687866,0.336456,1,1,1,1,1,88.000000
2024-05-15 12:29:14.891 AM,0.49763657036925,-0.2074976464220598,-0.3627787524543722,0.2381742082554824,0.3189003929351719,0.104288560412664,-0.09830599315604974,0.3975463922665677,1.243204832586771,0.6058025558558341,0.1405711053519524,1.086770343856975,0.4419856211011968,0.08588882220883946,-0.1022988864651389,0.5224018060143569,-0.1581933538802771,-0.06597662470871347,-0.5321634827367864,-0.08497956836062008,819.5604395604396,816.7399267399268,802.6373626373627,833.2600732600733,943.6630036630037,1456.996336996337,-0.079468,0.051453,1.001526,-0.284119,-0.687866,0.336456,1,1,1,1,1,88.000000
2024-05-15 12:29:14.892 AM,0.49763657036925,-0.2074976464220598,-0.3627787524543722,0.2381742082554824,0.3189003929351719,0.104288560412664,-0.09830599315604974,0.3975463922665677,1.243204832586771,0.6058025558558341,0.1405711053519524,1.086770343856975,0.4419856211011968,0.08588882220883946,-0.1022988864651389,0.5224018060143569,-0.1581933538802771,-0.06597662470871347,-0.5321634827367864,-0.08497956836062008,797.8021978021978,787.7289377289378,794.5787545787546,772.8205128205128,843.7362637362637,947.2893772893773,-0.079468,0.051453,1.001526,-0.284119,-0.687866,0.336456,1,1,1,1,1,88.000000
2024-05-15 12:29:14.892 AM,0.49763657036925,-0.2074976464220598,-0.3627787524543722,0.2381742082554824,0.3189003929351719,0.104288560412664,-0.09830599315604974,0.3975463922665677,1.243204832586771,0.6058025558558341,0.1405711053519524,1.086770343856975,0.4419856211011968,0.08588882220883946,-0.1022988864651389,0.5224018060143569,-0.1581933538802771,-0.06597662470871347,-0.5321634827367864,-0.08497956836062008,783.6996336996338,766.3736263736264,788.9377289377289,751.0622710622711,746.2271062271062,458.5347985347985,-0.079468,0.051453,1.001526,-0.284119,-0.687866,0.336456,1,1,1,1,1,88.000000
2024-05-15 12:29:14.892 AM,0.49763657036925,-0.2074976464220598,-0.3627787524543722,0.2381742082554824,0.3189003929351719,0.104288560412664,-0.09830599315604974,0.3975463922665677,1.243204832586771,0.6058025558558341,0.1405711053519524,1.086770343856975,0.4419856211011968,0.08588882220883946,-0.1022988864651389,0.5224018060143569,-0.1581933538802771,-0.06597662470871347,-0.5321634827367864,-0.08497956836062008,795.7875457875458,784.1025641025641,796.996336996337,792.967032967033,782.893772893773,543.956043956044,-0.079468,0.051453,1.001526,-0.284119,-0.687866,0.336456,1,1,1,1,1,88.000000
2024-05-15 12:29:14.892 AM,0.49763657036925,-0.2074976464220598,-0.3627787524543722,0.2381742082554824,0.3189003929351719,0.104288560412664,-0.09830599315604974,0.3975463922665677,1.243204832586771,0.6058025558558341,0.1405711053519524,1.086770343856975,0.4419856211011968,0.08588882220883946,-0.1022988864651389,0.5224018060143569,-0.1581933538802771,-0.06597662470871347,-0.5321634827367864,-0.08497956836062008,810.6959706959707,810.6959706959707,805.8608058608058,840.1098901098901,869.92673992674,794.1758241758242,-0.079468,0.051453,1.001526,-0.284119,-0.687866,0.336456,1,1,1,1,1,88.000000
2024-05-15 12:29:14.893 AM,0.49763657036925,-0.2074976464220598,-0.3627787524543722,0.2381742082554824,0.3189003929351719,0.104288560412664,-0.09830599315604974,0.3975463922665677,1.243204832586771,0.6058025558558341,0.1405711053519524,1.086770343856975,0.4419856211011968,0.08588882220883946,-0.1022988864651389,0.5224018060143569,-0.1581933538802771,-0.06597662470871347,-0.5321634827367864,-0.08497956836062008,810.6959706959707,807.8754578754579,807.0695970695971,838.901098901099,911.8315018315019,917.0695970695971,-0.079468,0.051453,1.001526,-0.284119,-0.687866,0.336456,1,1,1,1,1,88.000000
2024-05-15 12:29:14.936 AM,0.49763657036925,-0.2074976464220598,-0.3627787524543722,0.2381742082554824,0.3189003929351719,0.104288560412664,-0.09830599315604974,0.3975463922665677,1.243204832586771,0.6058025558558341,0.1405711053519524,1.086770343856975,0.4419856211011968,0.08588882220883946,-0.1022988864651389,0.5224018060143569,-0.1581933538802771,-0.06597662470871347,-0.5321634827367864,-0.08497956836062008,796.996336996337,785.7142857142858,797.8021978021978,794.981684981685,842.1245421245421,635.8241758241759,-0.076111,0.054504,0.989441,-0.613098,-0.381317,0.351410,1,1,1,1,1,88.000000
2024-05-15 12:29:14.936 AM,0.49763657036925,-0.2074976464220598,-0.3627787524543722,0.2381742082554824,0.3189003929351719,0.104288560412664,-0.09830599315604974,0.3975463922665677,1.243204832586771,0.6058025558558341,0.1405711053519524,1.086770343856975,0.4419856211011968,0.08588882220883946,-0.1022988864651389,0.5224018060143569,-0.1581933538802771,-0.06597662470871347,-0.5321634827367864,-0.08497956836062008,792.5641025641025,774.4322344322345,794.1758241758242,762.7472527472528,741.3919413919414,516.959706959707,-0.076111,0.054504,0.989441,-0.613098,-0.381317,0.351410,1,1,1,1,1,88.000000
2024-05-15 12:29:14.937 AM,0.49763657036925,-0.2074976464220598,-0.3627787524543722,0.2381742082554824,0.3189003929351719,0.104288560412664,-0.09830599315604974,0.3975463922665677,1.243204832586771,0.6058025558558341,0.1405711053519524,1.086770343856975,0.4419856211011968,0.08588882220883946,-0.1022988864651389,0.5224018060143569,-0.1581933538802771,-0.06597662470871347,-0.5321634827367864,-0.08497956836062008,811.9047619047619,790.952380952381,803.8461538461539,794.5787545787546,746.2271062271062,759.5238095238095,-0.076111,0.054504,0.989441,-0.613098,-0.381317,0.351410,1,1,1,1,1,88.000000
2024-05-15 12:29:14.937 AM,0.49763657036925,-0.2074976464220598,-0.3627787524543722,0.2381742082554824,0.3189003929351719,0.104288560412664,-0.09830599315604974,0.3975463922665677,1.243204832586771,0.6058025558558341,0.1405711053519524,1.086770343856975,0.4419856211011968,0.08588882220883946,-0.1022988864651389,0.5224018060143569,-0.1581933538802771,-0.06597662470871347,-0.5321634827367864,-0.08497956836062008,822.7838827838829,811.9047619047619,809.0842490842491,838.0952380952381,886.0439560439561,878.7912087912089,-0.076111,0.054504,0.989441,-0.613098,-0.381317,0.351410,1,1,1,1,1,88.000000
2024-05-15 12:29:14.937 AM,0.49763657036925,-0.2074976464220598,-0.3627787524543722,0.2381742082554824,0.3189003929351719,0.104288560412664,-0.09830599315604974,0.3975463922665677,1.243204832586771,0.6058025558558341,0.1405711053519524,1.086770343856975,0.4419856211011968,0.08588882220883946,-0.1022988864651389,0.5224018060143569,-0.1581933538802771,-0.06597662470871347,-0.5321634827367864,-0.08497956836062008,811.9047619047619,807.8754578754579,805.4578754578755,840.1098901098901,917.4725274725275,872.3443223443223,-0.076111,0.054504,0.989441,-0.613098,-0.381317,0.351410,1,1,1,1,1,88.000000
2024-05-15 12:29:14.938 AM,0.49763657036925,-0.2074976464220598,-0.3627787524543722,0.2381742082554824,0.3189003929351719,0.104288560412664,-0.09830599315604974,0.3975463922665677,1.243204832586771,0.6058025558558341,0.1405711053519524,1.086770343856975,0.4419856211011968,0.08588882220883946,-0.1022988864651389,0.5224018060143569,-0.1581933538802771,-0.06597662470871347,-0.5321634827367864,-0.08497956836062008,793.7728937728938,790.952380952381,795.7875457875458,797.3992673992674,841.7216117216118,977.5091575091575,-0.076111,0.054504,0.989441,-0.613098,-0.381317,0.351410,1,1,1,1,1,88.000000
2024-05-15 12:29:14.938 AM,0.49763657036925,-0.2074976464220598,-0.3627787524543722,0.2381742082554824,0.3189003929351719,0.104288560412664,-0.09830599315604974,0.3975463922665677,1.243204832586771,0.6058025558558341,0.1405711053519524,1.086770343856975,0.4419856211011968,0.08588882220883946,-0.1022988864651389,0.5224018060143569,-0.1581933538802771,-0.06597662470871347,-0.5321634827367864,-0.08497956836062008,785.3113553113553,779.2673992673992,791.3553113553114,767.5824175824176,758.7179487179487,993.6263736263736,-0.076111,0.054504,0.989441,-0.613098,-0.381317,0.351410,1,1,1,1,1,88.000000
2024-05-15 12:29:14.938 AM,0.49763657036925,-0.2074976464220598,-0.3627787524543722,0.2381742082554824,0.3189003929351719,0.104288560412664,-0.09830599315604974,0.3975463922665677,1.243204832586771,0.6058025558558341,0.1405711053519524,1.086770343856975,0.4419856211011968,0.08588882220883946,-0.1022988864651389,0.5224018060143569,-0.1581933538802771,-0.06597662470871347,-0.5321634827367864,-0.08497956836062008,796.5934065934066,786.1172161172161,793.3699633699634,791.3553113553114,729.3040293040293,1002.893772893773,-0.076111,0.054504,0.989441,-0.613098,-0.381317,0.351410,1,1,1,1,1,88.000000
2024-05-15 12:29:14.938 AM,0.49763657036925,-0.2074976464220598,-0.3627787524543722,0.2381742082554824,0.3189003929351719,0.104288560412664,-0.09830599315604974,0.3975463922665677,1.243204832586771,0.6058025558558341,0.1405711053519524,1.086770343856975,0.4419856211011968,0.08588882220883946,-0.1022988864651389,0.5224018060143569,-0.1581933538802771,-0.06597662470871347,-0.5321634827367864,-0.08497956836062008,812.3076923076924,807.4725274725275,801.4285714285714,837.6923076923077,825.6043956043957,930.3663003663004,-0.076111,0.054504,0.989441,-0.613098,-0.381317,0.351410,1,1,1,1,1,88.000000
2024-05-15 12:29:14.939 AM,0.49763657036925,-0.2074976464220598,-0.3627787524543722,0.2381742082554824,0.3189003929351719,0.104288560412664,-0.09830599315604974,0.3975463922665677,1.243204832586771,0.6058025558558341,0.1405711053519524,1.086770343856975,0.4419856211011968,0.08588882220883946,-0.1022988864651389,0.5224018060143569,-0.1581933538802771,-0.06597662470871347,-0.5321634827367864,-0.08497956836062008,809.4871794871796,810.6959706959707,803.4432234432235,853.4065934065934,885.6410256410256,828.4249084249085,-0.076111,0.054504,0.989441,-0.613098,-0.381317,0.351410,1,1,1,1,1,88.000000
2024-05-15 12:29:14.939 AM,0.49763657036925,-0.2074976464220598,-0.3627787524543722,0.2381742082554824,0.3189003929351719,0.104288560412664,-0.09830599315604974,0.3975463922665677,1.243204832586771,0.6058025558558341,0.1405711053519524,1.086770343856975,0.4419856211011968,0.08588882220883946,-0.1022988864651389,0.5224018060143569,-0.1581933538802771,-0.06597662470871347,-0.5321634827367864,-0.08497956836062008,792.5641025641025,792.1611721611722,795.3846153846154,809.4871794871796,844.1391941391942,756.3003663003664,-0.076111,0.054504,0.989441,-0.613098,-0.381317,0.351410,1,1,1,1,1,88.000000
2024-05-15 12:29:14.939 AM,0.49763657036925,-0.2074976464220598,-0.3627787524543722,0.2381742082554824,0.3189003929351719,0.104288560412664,-0.09830599315604974,0.3975463922665677,1.243204832586771,0.6058025558558341,0.1405711053519524,1.086770343856975,0.4419856211011968,0.08588882220883946,-0.1022988864651389,0.5224018060143569,-0.1581933538802771,-0.06597662470871347,-0.5321634827367864,-0.08497956836062008,775.6410256410256,774.0293040293041,790.1465201465202,760.7326007326008,756.7032967032967,506.8864468864469,-0.076111,0.054504,0.989441,-0.613098,-0.381317,0.351410,1,1,1,1,1,88.000000
2024-05-15 12:29:15.005 AM,0.49763657036925,-0.2074976464220598,-0.3627787524543722,0.2381742082554824,0.3189003929351719,0.104288560412664,-0.09830599315604974,0.3975463922665677,1.243204832586771,0.6058025558558341,0.1405711053519524,1.086770343856975,0.4419856211011968,0.08588882220883946,-0.1022988864651389,0.5224018060143569,-0.1581933538802771,-0.06597662470871347,-0.5321634827367864,-0.08497956836062008,776.4468864468864,780.0732600732601,795.3846153846154,776.4468864468864,752.6739926739926,368.2783882783883,-0.076111,0.054504,0.989441,-0.613098,-0.381317,0.351410,1,1,1,1,1,88.000000
2024-05-15 12:29:15.006 AM,0.5077503785068105,-0.1372699864965432,-0.3196466324626773,0.2187445031068203,0.3371223204303128,0.1341868554811146,-0.08646329523438448,0.4112937885831554,1.243204832586771,0.6058025558558341,0.1757776069214434,1.086770343856975,0.4414052446814529,0.105644770799838,-0.09385400678153685,0.5410633853562387,-0.1467365034063962,-0.05734268215370769,-0.5209738389933565,-0.06631829633199668,795.3846153846154,805.8608058608058,807.4725274725275,832.4542124542124,853.0036630036631,612.4542124542124,-0.076111,0.054504,0.989441,-0.613098,-0.381317,0.351410,1,1,1,1,1,88.000000
2024-05-15 12:29:15.009 AM,0.5077503785068105,-0.1372699864965432,-0.3196466324626773,0.2187445031068203,0.3371223204303128,0.1341868554811146,-0.08646329523438448,0.4112937885831554,1.243204832586771,0.6058025558558341,0.1757776069214434,1.086770343856975,0.4414052446814529,0.105644770799838,-0.09385400678153685,0.5410633853562387,-0.1467365034063962,-0.05734268215370769,-0.5209738389933565,-0.06631829633199668,803.4432234432235,815.1282051282052,809.0842490842491,846.959706959707,941.2454212454213,982.7472527472528,-0.076111,0.054504,0.989441,-0.613098,-0.381317,0.351410,1,1,1,1,1,88.000000
2024-05-15 12:29:15.010 AM,0.5077503785068105,-0.1372699864965432,-0.3196466324626773,0.2187445031068203,0.3371223204303128,0.1341868554811146,-0.08646329523438448,0.4112937885831554,1.243204832586771,0.6058025558558341,0.1757776069214434,1.086770343856975,0.4414052446814529,0.105644770799838,-0.09385400678153685,0.5410633853562387,-0.1467365034063962,-0.05734268215370769,-0.5209738389933565,-0.06631829633199668,789.3406593406594,794.981684981685,801.8315018315019,808.6813186813187,862.6739926739926,817.948717948718,-0.076111,0.054504,0.989441,-0.613098,-0.381317,0.351410,1,1,1,1,1,88.000000
2024-05-15 12:29:15.010 AM,0.5077503785068105,-0.1372699864965432,-0.3196466324626773,0.2187445031068203,0.3371223204303128,0.1341868554811146,-0.08646329523438448,0.4112937885831554,1.243204832586771,0.6058025558558341,0.1757776069214434,1.086770343856975,0.4414052446814529,0.105644770799838,-0.09385400678153685,0.5410633853562387,-0.1467365034063962,-0.05734268215370769,-0.5209738389933565,-0.06631829633199668,779.6703296703297,772.4175824175825,801.4285714285714,769.1941391941392,745.4212454212454,724.8717948717949,-0.076111,0.054504,0.989441,-0.613098,-0.381317,0.351410,1,1,1,1,1,88.000000
2024-05-15 12:29:15.011 AM,0.5077503785068105,-0.1372699864965432,-0.3196466324626773,0.2187445031068203,0.3371223204303128,0.1341868554811146,-0.08646329523438448,0.4112937885831554,1.243204832586771,0.6058025558558341,0.1757776069214434,1.086770343856975,0.4414052446814529,0.105644770799838,-0.09385400678153685,0.5410633853562387,-0.1467365034063962,-0.05734268215370769,-0.5209738389933565,-0.06631829633199668,800.6227106227107,775.6410256410256,809.4871794871796,793.3699633699634,735.7509157509157,911.0256410256411,-0.076111,0.054504,0.989441,-0.613098,-0.381317,0.351410,1,1,1,1,1,88.000000
2024-05-15 12:29:15.011 AM,0.5077503785068105,-0.1372699864965432,-0.3196466324626773,0.2187445031068203,0.3371223204303128,0.1341868554811146,-0.08646329523438448,0.4112937885831554,1.243204832586771,0.6058025558558341,0.1757776069214434,1.086770343856975,0.4414052446814529,0.105644770799838,-0.09385400678153685,0.5410633853562387,-0.1467365034063962,-0.05734268215370769,-0.5209738389933565,-0.06631829633199668,819.5604395604396,805.0549450549451,813.919413919414,843.7362637362637,821.978021978022,1201.538461538462,-0.076111,0.054504,0.989441,-0.613098,-0.381317,0.351410,1,1,1,1,1,88.000000
2024-05-15 12:29:15.012 AM,0.5077503785068105,-0.1372699864965432,-0.3196466324626773,0.2187445031068203,0.3371223204303128,0.1341868554811146,-0.08646329523438448,0.4112937885831554,1.243204832586771,0.6058025558558341,0.1757776069214434,1.086770343856975,0.4414052446814529,0.105644770799838,-0.09385400678153685,0.5410633853562387,-0.1467365034063962,-0.05734268215370769,-0.5209738389933565,-0.06631829633199668,803.8461538461539,813.1135531135532,807.4725274725275,836.0805860805862,892.4908424908425,1230.549450549451,-0.076111,0.054504,0.989441,-0.613098,-0.381317,0.351410,1,1,1,1,1,88.000000
2024-05-15 12:29:15.013 AM,0.5077503785068105,-0.1372699864965432,-0.3196466324626773,0.2187445031068203,0.3371223204303128,0.1341868554811146,-0.08646329523438448,0.4112937885831554,1.243204832586771,0.6058025558558341,0.1757776069214434,1.086770343856975,0.4414052446814529,0.105644770799838,-0.09385400678153685,0.5410633853562387,-0.1467365034063962,-0.05734268215370769,-0.5209738389933565,-0.06631829633199668,781.6849816849817,789.7435897435897,796.996336996337,801.025641025641,867.1062271062272,810.2930402930403,-0.076111,0.054504,0.989441,-0.613098,-0.381317,0.351410,1,1,1,1,1,88.000000
2024-05-15 12:29:15.013 AM,0.5077503785068105,-0.1372699864965432,-0.3196466324626773,0.2187445031068203,0.3371223204303128,0.1341868554811146,-0.08646329523438448,0.4112937885831554,1.243204832586771,0.6058025558558341,0.1757776069214434,1.086770343856975,0.4414052446814529,0.105644770799838,-0.09385400678153685,0.5410633853562387,-0.1467365034063962,-0.05734268215370769,-0.5209738389933565,-0.06631829633199668,774.8351648351648,773.6263736263736,786.5201465201466,759.1208791208792,794.5787545787546,554.8351648351648,-0.076111,0.054504,0.989441,-0.613098,-0.381317,0.351410,1,1,1,1,1,88.000000
2024-05-15 12:29:15.014 AM,0.5077503785068105,-0.1372699864965432,-0.3196466324626773,0.2187445031068203,0.3371223204303128,0.1341868554811146,-0.08646329523438448,0.4112937885831554,1.243204832586771,0.6058025558558341,0.1757776069214434,1.086770343856975,0.4414052446814529,0.105644770799838,-0.09385400678153685,0.5410633853562387,-0.1467365034063962,-0.05734268215370769,-0.5209738389933565,-0.06631829633199668,781.6849816849817,776.0439560439561,789.7435897435897,761.941391941392,747.4358974358975,483.1135531135531,-0.076111,0.054504,0.989441,-0.613098,-0.381317,0.351410,1,1,1,1,1,88.000000
2024-05-15 12:29:15.014 AM,0.5077503785068105,-0.1372699864965432,-0.3196466324626773,0.2187445031068203,0.3371223204303128,0.1341868554811146,-0.08646329523438448,0.4112937885831554,1.243204832586771,0.6058025558558341,0.1757776069214434,1.086770343856975,0.4414052446814529,0.105644770799838,-0.09385400678153685,0.5410633853562387,-0.1467365034063962,-0.05734268215370769,-0.5209738389933565,-0.06631829633199668,795.7875457875458,800.6227106227107,801.025641025641,818.3516483516484,813.919413919414,678.5347985347986,-0.076111,0.054504,0.989441,-0.613098,-0.381317,0.351410,1,1,1,1,1,88.000000
2024-05-15 12:29:15.036 AM,0.5077503785068105,-0.1372699864965432,-0.3196466324626773,0.2187445031068203,0.3371223204303128,0.1341868554811146,-0.08646329523438448,0.4112937885831554,1.243204832586771,0.6058025558558341,0.1757776069214434,1.086770343856975,0.4414052446814529,0.105644770799838,-0.09385400678153685,0.5410633853562387,-0.1467365034063962,-0.05734268215370769,-0.5209738389933565,-0.06631829633199668,803.4432234432235,819.1575091575091,805.0549450549451,850.1831501831502,891.6849816849817,823.992673992674,-0.081360,0.052612,0.988770,-0.089722,-0.456085,0.284119,1,1,1,1,1,88.000000
2024-05-15 12:29:15.037 AM,0.5077503785068105,-0.1372699864965432,-0.3196466324626773,0.2187445031068203,0.3371223204303128,0.1341868554811146,-0.08646329523438448,0.4112937885831554,1.243204832586771,0.6058025558558341,0.1757776069214434,1.086770343856975,0.4414052446814529,0.105644770799838,-0.09385400678153685,0.5410633853562387,-0.1467365034063962,-0.05734268215370769,-0.5209738389933565,-0.06631829633199668,790.952380952381,806.6666666666667,798.6080586080586,818.7545787545788,835.2747252747253,758.7179487179487,-0.081360,0.052612,0.988770,-0.089722,-0.456085,0.284119,1,1,1,1,1,88.000000
2024-05-15 12:29:15.037 AM,0.5077503785068105,-0.1372699864965432,-0.3196466324626773,0.2187445031068203,0.3371223204303128,0.1341868554811146,-0.08646329523438448,0.4112937885831554,1.243204832586771,0.6058025558558341,0.1757776069214434,1.086770343856975,0.4414052446814529,0.105644770799838,-0.09385400678153685,0.5410633853562387,-0.1467365034063962,-0.05734268215370769,-0.5209738389933565,-0.06631829633199668,781.2820512820513,783.6996336996338,791.3553113553114,771.6117216117216,746.6300366300367,616.080586080586,-0.081360,0.052612,0.988770,-0.089722,-0.456085,0.284119,1,1,1,1,1,88.000000
2024-05-15 12:29:15.038 AM,0.5077503785068105,-0.1372699864965432,-0.3196466324626773,0.2187445031068203,0.3371223204303128,0.1341868554811146,-0.08646329523438448,0.4112937885831554,1.243204832586771,0.6058025558558341,0.1757776069214434,1.086770343856975,0.4414052446814529,0.105644770799838,-0.09385400678153685,0.5410633853562387,-0.1467365034063962,-0.05734268215370769,-0.5209738389933565,-0.06631829633199668,783.2967032967033,782.0879120879121,793.3699633699634,770.8058608058608,713.5897435897436,455.3113553113553,-0.081360,0.052612,0.988770,-0.089722,-0.456085,0.284119,1,1,1,1,1,88.000000
2024-05-15 12:29:15.038 AM,0.5077503785068105,-0.1372699864965432,-0.3196466324626773,0.2187445031068203,0.3371223204303128,0.1341868554811146,-0.08646329523438448,0.4112937885831554,1.243204832586771,0.6058025558558341,0.1757776069214434,1.086770343856975,0.4414052446814529,0.105644770799838,-0.09385400678153685,0.5410633853562387,-0.1467365034063962,-0.05734268215370769,-0.5209738389933565,-0.06631829633199668,794.1758241758242,802.6373626373627,799.0109890109891,806.2637362637363,794.5787545787546,722.0512820512821,-0.081360,0.052612,0.988770,-0.089722,-0.456085,0.284119,1,1,1,1,1,88.000000
2024-05-15 12:29:15.039 AM,0.5077503785068105,-0.1372699864965432,-0.3196466324626773,0.2187445031068203,0.3371223204303128,0.1341868554811146,-0.08646329523438448,0.4112937885831554,1.243204832586771,0.6058025558558341,0.1757776069214434,1.086770343856975,0.4414052446814529,0.105644770799838,-0.09385400678153685,0.5410633853562387,-0.1467365034063962,-0.05734268215370769,-0.5209738389933565,-0.06631829633199668,806.2637362637363,823.1868131868132,807.0695970695971,833.2600732600733,911.0256410256411,1303.479853479854,-0.081360,0.052612,0.988770,-0.089722,-0.456085,0.284119,1,1,1,1,1,88.000000
2024-05-15 12:29:15.039 AM,0.5077503785068105,-0.1372699864965432,-0.3196466324626773,0.2187445031068203,0.3371223204303128,0.1341868554811146,-0.08646329523438448,0.4112937885831554,1.243204832586771,0.6058025558558341,0.1757776069214434,1.086770343856975,0.4414052446814529,0.105644770799838,-0.09385400678153685,0.5410633853562387,-0.1467365034063962,-0.05734268215370769,-0.5209738389933565,-0.06631829633199668,793.7728937728938,816.7399267399268,803.040293040293,813.5164835164835,918.6813186813187,1431.611721611722,-0.081360,0.052612,0.988770,-0.089722,-0.456085,0.284119,1,1,1,1,1,88.000000
2024-05-15 12:29:15.039 AM,0.5077503785068105,-0.1372699864965432,-0.3196466324626773,0.2187445031068203,0.3371223204303128,0.1341868554811146,-0.08646329523438448,0.4112937885831554,1.243204832586771,0.6058025558558341,0.1757776069214434,1.086770343856975,0.4414052446814529,0.105644770799838,-0.09385400678153685,0.5410633853562387,-0.1467365034063962,-0.05734268215370769,-0.5209738389933565,-0.06631829633199668,776.8498168498169,789.3406593406594,786.1172161172161,763.1501831501831,848.1684981684982,1182.600732600733,-0.081360,0.052612,0.988770,-0.089722,-0.456085,0.284119,1,1,1,1,1,88.000000
2024-05-15 12:29:15.040 AM,0.5077503785068105,-0.1372699864965432,-0.3196466324626773,0.2187445031068203,0.3371223204303128,0.1341868554811146,-0.08646329523438448,0.4112937885831554,1.243204832586771,0.6058025558558341,0.1757776069214434,1.086770343856975,0.4414052446814529,0.105644770799838,-0.09385400678153685,0.5410633853562387,-0.1467365034063962,-0.05734268215370769,-0.5209738389933565,-0.06631829633199668,784.9084249084249,783.6996336996338,785.7142857142858,747.8388278388279,714.3956043956044,717.6190476190476,-0.081360,0.052612,0.988770,-0.089722,-0.456085,0.284119,1,1,1,1,1,88.000000
2024-05-15 12:29:15.040 AM,0.5077503785068105,-0.1372699864965432,-0.3196466324626773,0.2187445031068203,0.3371223204303128,0.1341868554811146,-0.08646329523438448,0.4112937885831554,1.243204832586771,0.6058025558558341,0.1757776069214434,1.086770343856975,0.4414052446814529,0.105644770799838,-0.09385400678153685,0.5410633853562387,-0.1467365034063962,-0.05734268215370769,-0.5209738389933565,-0.06631829633199668,801.8315018315019,805.8608058608058,799.0109890109891,798.2051282051282,759.92673992674,537.5091575091575,-0.081360,0.052612,0.988770,-0.089722,-0.456085,0.284119,1,1,1,1,1,88.000000
2024-05-15 12:29:15.040 AM,0.5077503785068105,-0.1372699864965432,-0.3196466324626773,0.2187445031068203,0.3371223204303128,0.1341868554811146,-0.08646329523438448,0.4112937885831554,1.243204832586771,0.6058025558558341,0.1757776069214434,1.086770343856975,0.4414052446814529,0.105644770799838,-0.09385400678153685,0.5410633853562387,-0.1467365034063962,-0.05734268215370769,-0.5209738389933565,-0.06631829633199668,812.7106227106227,823.5897435897436,807.4725274725275,848.5714285714286,898.1318681318681,832.0512820512821,-0.081360,0.052612,0.988770,-0.089722,-0.456085,0.284119,1,1,1,1,1,88.000000
2024-05-15 12:29:15.041 AM,0.5077503785068105,-0.1372699864965432,-0.3196466324626773,0.2187445031068203,0.3371223204303128,0.1341868554811146,-0.08646329523438448,0.4112937885831554,1.243204832586771,0.6058025558558341,0.1757776069214434,1.086770343856975,0.4414052446814529,0.105644770799838,-0.09385400678153685,0.5410633853562387,-0.1467365034063962,-0.05734268215370769,-0.5209738389933565,-0.06631829633199668,800.2197802197802,811.5018315018315,798.6080586080586,825.6043956043957,870.7326007326008,883.2234432234433,-0.081360,0.052612,0.988770,-0.089722,-0.456085,0.284119,1,1,1,1,1,88.000000
2024-05-15 12:29:15.085 AM,0.5077503785068105,-0.1372699864965432,-0.3196466324626773,0.2187445031068203,0.3371223204303128,0.1341868554811146,-0.08646329523438448,0.4112937885831554,1.243204832586771,0.6058025558558341,0.1757776069214434,1.086770343856975,0.4414052446814529,0.105644770799838,-0.09385400678153685,0.5410633853562387,-0.1467365034063962,-0.05734268215370769,-0.5209738389933565,-0.06631829633199668,782.0879120879121,788.5347985347986,786.1172161172161,778.0586080586081,785.7142857142858,583.4432234432235,-0.080505,0.054321,0.993530,-0.545807,-1.091614,0.328979,1,1,1,1,1,88.000000
2024-05-15 12:29:15.086 AM,0.5077503785068105,-0.1372699864965432,-0.3196466324626773,0.2187445031068203,0.3371223204303128,0.1341868554811146,-0.08646329523438448,0.4112937885831554,1.243204832586771,0.6058025558558341,0.1757776069214434,1.086770343856975,0.4414052446814529,0.105644770799838,-0.09385400678153685,0.5410633853562387,-0.1467365034063962,-0.05734268215370769,-0.5209738389933565,-0.06631829633199668,786.1172161172161,782.4908424908425,788.5347985347986,770.8058608058608,726.4835164835165,386.4102564102564,-0.080505,0.054321,0.993530,-0.545807,-1.091614,0.328979,1,1,1,1,1,88.000000
2024-05-15 12:29:15.086 AM,0.5077503785068105,-0.1372699864965432,-0.3196466324626773,0.2187445031068203,0.3371223204303128,0.1341868554811146,-0.08646329523438448,0.4112937885831554,1.243204832586771,0.6058025558558341,0.1757776069214434,1.086770343856975,0.4414052446814529,0.105644770799838,-0.09385400678153685,0.5410633853562387,-0.1467365034063962,-0.05734268215370769,-0.5209738389933565,-0.06631829633199668,802.2344322344322,797.3992673992674,799.0109890109891,805.0549450549451,725.2747252747253,544.7619047619048,-0.080505,0.054321,0.993530,-0.545807,-1.091614,0.328979,1,1,1,1,1,88.000000
2024-05-15 12:29:15.087 AM,0.4984114066841954,-0.05073302083030461,-0.249694068785456,0.2110705604212446,0.3470545327146479,0.145874534317633,-0.06570680970443571,0.4322291014378979,1.243204832586771,0.6058025558558341,0.1804786925312783,1.086770343856975,0.4552598368649836,0.1188930629949699,-0.08287838066950941,0.5659072883951006,-0.1338922532914175,-0.0515296923554185,-0.4966664577766612,-0.04563751964414198,811.9047619047619,818.3516483516484,803.4432234432235,847.3626373626374,825.6043956043957,830.4395604395604,-0.080505,0.054321,0.993530,-0.545807,-1.091614,0.328979,1,1,1,1,1,88.000000
2024-05-15 12:29:15.089 AM,0.4984114066841954,-0.05073302083030461,-0.249694068785456,0.2110705604212446,0.3470545327146479,0.145874534317633,-0.06570680970443571,0.4322291014378979,1.243204832586771,0.6058025558558341,0.1804786925312783,1.086770343856975,0.4552598368649836,0.1188930629949699,-0.08287838066950941,0.5659072883951006,-0.1338922532914175,-0.0515296923554185,-0.4966664577766612,-0.04563751964414198,808.6813186813187,813.5164835164835,798.2051282051282,844.1391941391942,881.6117216117217,889.2673992673992,-0.080505,0.054321,0.993530,-0.545807,-1.091614,0.328979,1,1,1,1,1,88.000000
2024-05-15 12:29:15.090 AM,0.4984114066841954,-0.05073302083030461,-0.249694068785456,0.2110705604212446,0.3470545327146479,0.145874534317633,-0.06570680970443571,0.4322291014378979,1.243204832586771,0.6058025558558341,0.1804786925312783,1.086770343856975,0.4552598368649836,0.1188930629949699,-0.08287838066950941,0.5659072883951006,-0.1338922532914175,-0.0515296923554185,-0.4966664577766612,-0.04563751964414198,792.5641025641025,796.996336996337,793.7728937728938,795.7875457875458,854.6153846153846,1031.098901098901,-0.080505,0.054321,0.993530,-0.545807,-1.091614,0.328979,1,1,1,1,1,88.000000
2024-05-15 12:29:15.090 AM,0.4984114066841954,-0.05073302083030461,-0.249694068785456,0.2110705604212446,0.3470545327146479,0.145874534317633,-0.06570680970443571,0.4322291014378979,1.243204832586771,0.6058025558558341,0.1804786925312783,1.086770343856975,0.4552598368649836,0.1188930629949699,-0.08287838066950941,0.5659072883951006,-0.1338922532914175,-0.0515296923554185,-0.4966664577766612,-0.04563751964414198,784.1025641025641,788.5347985347986,792.967032967033,767.5824175824176,781.2820512820513,1084.688644688645,-0.080505,0.054321,0.993530,-0.545807,-1.091614,0.328979,1,1,1,1,1,88.000000
2024-05-15 12:29:15.090 AM,0.4984114066841954,-0.05073302083030461,-0.249694068785456,0.2110705604212446,0.3470545327146479,0.145874534317633,-0.06570680970443571,0.4322291014378979,1.243204832586771,0.6058025558558341,0.1804786925312783,1.086770343856975,0.4552598368649836,0.1188930629949699,-0.08287838066950941,0.5659072883951006,-0.1338922532914175,-0.0515296923554185,-0.4966664577766612,-0.04563751964414198,797.8021978021978,792.967032967033,796.996336996337,798.6080586080586,769.1941391941392,794.981684981685,-0.080505,0.054321,0.993530,-0.545807,-1.091614,0.328979,1,1,1,1,1,88.000000
2024-05-15 12:29:15.091 AM,0.4984114066841954,-0.05073302083030461,-0.249694068785456,0.2110705604212446,0.3470545327146479,0.145874534317633,-0.06570680970443571,0.4322291014378979,1.243204832586771,0.6058025558558341,0.1804786925312783,1.086770343856975,0.4552598368649836,0.1188930629949699,-0.08287838066950941,0.5659072883951006,-0.1338922532914175,-0.0515296923554185,-0.4966664577766612,-0.04563751964414198,806.6666666666667,810.6959706959707,803.4432234432235,844.1391941391942,884.8351648351648,684.5787545787546,-0.080505,0.054321,0.993530,-0.545807,-1.091614,0.328979,1,1,1,1,1,88.000000
2024-05-15 12:29:15.091 AM,0.4984114066841954,-0.05073302083030461,-0.249694068785456,0.2110705604212446,0.3470545327146479,0.145874534317633,-0.06570680970443571,0.4322291014378979,1.243204832586771,0.6058025558558341,0.1804786925312783,1.086770343856975,0.4552598368649836,0.1188930629949699,-0.08287838066950941,0.5659072883951006,-0.1338922532914175,-0.0515296923554185,-0.4966664577766612,-0.04563751964414198,801.8315018315019,820.7692307692308,802.6373626373627,841.3186813186813,927.5457875457876,1064.542124542125,-0.080505,0.054321,0.993530,-0.545807,-1.091614,0.328979,1,1,1,1,1,88.000000
2024-05-15 12:29:15.092 AM,0.4984114066841954,-0.05073302083030461,-0.249694068785456,0.2110705604212446,0.3470545327146479,0.145874534317633,-0.06570680970443571,0.4322291014378979,1.243204832586771,0.6058025558558341,0.1804786925312783,1.086770343856975,0.4552598368649836,0.1188930629949699,-0.08287838066950941,0.5659072883951006,-0.1338922532914175,-0.0515296923554185,-0.4966664577766612,-0.04563751964414198,785.7142857142858,800.6227106227107,796.996336996337,792.5641025641025,850.989010989011,1050.43956043956,-0.080505,0.054321,0.993530,-0.545807,-1.091614,0.328979,1,1,1,1,1,88.000000
2024-05-15 12:29:15.092 AM,0.4984114066841954,-0.05073302083030461,-0.249694068785456,0.2110705604212446,0.3470545327146479,0.145874534317633,-0.06570680970443571,0.4322291014378979,1.243204832586771,0.6058025558558341,0.1804786925312783,1.086770343856975,0.4552598368649836,0.1188930629949699,-0.08287838066950941,0.5659072883951006,-0.1338922532914175,-0.0515296923554185,-0.4966664577766612,-0.04563751964414198,780.0732600732601,780.8791208791209,793.7728937728938,762.7472527472528,770.4029304029305,504.0659340659341,-0.080505,0.054321,0.993530,-0.545807,-1.091614,0.328979,1,1,1,1,1,88.000000
2024-05-15 12:29:15.135 AM,0.4984114066841954,-0.05073302083030461,-0.249694068785456,0.2110705604212446,0.3470545327146479,0.145874534317633,-0.06570680970443571,0.4322291014378979,1.243204832586771,0.6058025558558341,0.1804786925312783,1.086770343856975,0.4552598368649836,0.1188930629949699,-0.08287838066950941,0.5659072883951006,-0.1338922532914175,-0.0515296923554185,-0.4966664577766612,-0.04563751964414198,797.3992673992674,796.996336996337,801.025641025641,790.5494505494506,767.985347985348,518.1684981684982,-0.080322,0.054199,0.994690,-0.224304,-1.009369,0.082245,1,1,1,1,1,88.000000
2024-05-15 12:29:15.136 AM,0.4984114066841954,-0.05073302083030461,-0.249694068785456,0.2110705604212446,0.3470545327146479,0.145874534317633,-0.06570680970443571,0.4322291014378979,1.243204832586771,0.6058025558558341,0.1804786925312783,1.086770343856975,0.4552598368649836,0.1188930629949699,-0.08287838066950941,0.5659072883951006,-0.1338922532914175,-0.0515296923554185,-0.4966664577766612,-0.04563751964414198,815.1282051282052,823.5897435897436,812.7106227106227,842.1245421245421,843.7362637362637,781.2820512820513,-0.080322,0.054199,0.994690,-0.224304,-1.009369,0.082245,1,1,1,1,1,88.000000
2024-05-15 12:29:15.136 AM,0.4984114066841954,-0.05073302083030461,-0.249694068785456,0.2110705604212446,0.3470545327146479,0.145874534317633,-0.06570680970443571,0.4322291014378979,1.243204832586771,0.6058025558558341,0.1804786925312783,1.086770343856975,0.4552598368649836,0.1188930629949699,-0.08287838066950941,0.5659072883951006,-0.1338922532914175,-0.0515296923554185,-0.4966664577766612,-0.04563751964414198,801.8315018315019,823.992673992674,810.2930402930403,852.6007326007326,902.1611721611722,946.0805860805862,-0.080322,0.054199,0.994690,-0.224304,-1.009369,0.082245,1,1,1,1,1,88.000000
2024-05-15 12:29:15.137 AM,0.4984114066841954,-0.05073302083030461,-0.249694068785456,0.2110705604212446,0.3470545327146479,0.145874534317633,-0.06570680970443571,0.4322291014378979,1.243204832586771,0.6058025558558341,0.1804786925312783,1.086770343856975,0.4552598368649836,0.1188930629949699,-0.08287838066950941,0.5659072883951006,-0.1338922532914175,-0.0515296923554185,-0.4966664577766612,-0.04563751964414198,778.8644688644689,803.040293040293,799.8168498168499,802.2344322344322,851.3919413919414,813.919413919414,-0.080322,0.054199,0.994690,-0.224304,-1.009369,0.082245,1,1,1,1,1,88.000000
2024-05-15 12:29:15.137 AM,0.4984114066841954,-0.05073302083030461,-0.249694068785456,0.2110705604212446,0.3470545327146479,0.145874534317633,-0.06570680970443571,0.4322291014378979,1.243204832586771,0.6058025558558341,0.1804786925312783,1.086770343856975,0.4552598368649836,0.1188930629949699,-0.08287838066950941,0.5659072883951006,-0.1338922532914175,-0.0515296923554185,-0.4966664577766612,-0.04563751964414198,781.2820512820513,790.952380952381,793.3699633699634,762.3443223443223,778.0586080586081,558.8644688644689,-0.080322,0.054199,0.994690,-0.224304,-1.009369,0.082245,1,1,1,1,1,88.000000
2024-05-15 12:29:15.138 AM,0.4984114066841954,-0.05073302083030461,-0.249694068785456,0.2110705604212446,0.3470545327146479,0.145874534317633,-0.06570680970443571,0.4322291014378979,1.243204832586771,0.6058025558558341,0.1804786925312783,1.086770343856975,0.4552598368649836,0.1188930629949699,-0.08287838066950941,0.5659072883951006,-0.1338922532914175,-0.0515296923554185,-0.4966664577766612,-0.04563751964414198,799.0109890109891,801.4285714285714,795.3846153846154,777.6556776556777,775.2380952380953,877.985347985348,-0.080322,0.054199,0.994690,-0.224304,-1.009369,0.082245,1,1,1,1,1,88.000000
2024-05-15 12:29:15.138 AM,0.4984114066841954,-0.05073302083030461,-0.249694068785456,0.2110705604212446,0.3470545327146479,0.145874534317633,-0.06570680970443571,0.4322291014378979,1.243204832586771,0.6058025558558341,0.1804786925312783,1.086770343856975,0.4552598368649836,0.1188930629949699,-0.08287838066950941,0.5659072883951006,-0.1338922532914175,-0.0515296923554185,-0.4966664577766612,-0.04563751964414198,811.0989010989011,822.7838827838829,801.4285714285714,826.4102564102565,870.7326007326008,1298.644688644689,-0.080322,0.054199,0.994690,-0.224304,-1.009369,0.082245,1,1,1,1,1,88.000000
2024-05-15 12:29:15.139 AM,0.4984114066841954,-0.05073302083030461,-0.249694068785456,0.2110705604212446,0.3470545327146479,0.145874534317633,-0.06570680970443571,0.4322291014378979,1.243204832586771,0.6058025558558341,0.1804786925312783,1.086770343856975,0.4552598368649836,0.1188930629949699,-0.08287838066950941,0.5659072883951006,-0.1338922532914175,-0.0515296923554185,-0.4966664577766612,-0.04563751964414198,801.4285714285714,827.2161172161173,799.8168498168499,842.9304029304029,921.5018315018315,1386.483516483516,-0.080322,0.054199,0.994690,-0.224304,-1.009369,0.082245,1,1,1,1,1,88.000000
2024-05-15 12:29:15.139 AM,0.4984114066841954,-0.05073302083030461,-0.249694068785456,0.2110705604212446,0.3470545327146479,0.145874534317633,-0.06570680970443571,0.4322291014378979,1.243204832586771,0.6058025558558341,0.1804786925312783,1.086770343856975,0.4552598368649836,0.1188930629949699,-0.08287838066950941,0.5659072883951006,-0.1338922532914175,-0.0515296923554185,-0.4966664577766612,-0.04563751964414198,791.7582417582418,803.8461538461539,792.5641025641025,804.2490842490843,836.8864468864469,980.7326007326008,-0.080322,0.054199,0.994690,-0.224304,-1.009369,0.082245,1,1,1,1,1,88.000000
2024-05-15 12:29:15.140 AM,0.4984114066841954,-0.05073302083030461,-0.249694068785456,0.2110705604212446,0.3470545327146479,0.145874534317633,-0.06570680970443571,0.4322291014378979,1.243204832586771,0.6058025558558341,0.1804786925312783,1.086770343856975,0.4552598368649836,0.1188930629949699,-0.08287838066950941,0.5659072883951006,-0.1338922532914175,-0.0515296923554185,-0.4966664577766612,-0.04563751964414198,787.7289377289378,782.0879120879121,787.7289377289378,764.3589743589744,777.2527472527473,477.8754578754579,-0.080322,0.054199,0.994690,-0.224304,-1.009369,0.082245,1,1,1,1,1,88.000000
2024-05-15 12:29:15.140 AM,0.4984114066841954,-0.05073302083030461,-0.249694068785456,0.2110705604212446,0.3470545327146479,0.145874534317633,-0.06570680970443571,0.4322291014378979,1.243204832586771,0.6058025558558341,0.1804786925312783,1.086770343856975,0.4552598368649836,0.1188930629949699,-0.08287838066950941,0.5659072883951006,-0.1338922532914175,-0.0515296923554185,-0.4966664577766612,-0.04563751964414198,788.1318681318681,789.7435897435897,792.5641025641025,771.2087912087912,755.0915750915751,462.1611721611721,-0.080322,0.054199,0.994690,-0.224304,-1.009369,0.082245,1,1,1,1,1,88.000000
2024-05-15 12:29:15.141 AM,0.4984114066841954,-0.05073302083030461,-0.249694068785456,0.2110705604212446,0.3470545327146479,0.145874534317633,-0.06570680970443571,0.4322291014378979,1.243204832586771,0.6058025558558341,0.1804786925312783,1.086770343856975,0.4552598368649836,0.1188930629949699,-0.08287838066950941,0.5659072883951006,-0.1338922532914175,-0.0515296923554185,-0.4966664577766612,-0.04563751964414198,804.6520146520147,817.948717948718,805.0549450549451,821.978021978022,791.3553113553114,743.0036630036631,-0.080322,0.054199,0.994690,-0.224304,-1.009369,0.082245,1,1,1,1,1,88.000000
2024-05-15 12:29:15.184 AM,0.4984114066841954,-0.05073302083030461,-0.249694068785456,0.2110705604212446,0.3470545327146479,0.145874534317633,-0.06570680970443571,0.4322291014378979,1.243204832586771,0.6058025558558341,0.1804786925312783,1.086770343856975,0.4552598368649836,0.1188930629949699,-0.08287838066950941,0.5659072883951006,-0.1338922532914175,-0.0515296923554185,-0.4966664577766612,-0.04563751964414198,804.2490842490843,831.6483516483516,809.4871794871796,845.3479853479854,871.5384615384615,1081.868131868132,-0.082764,0.047119,0.992432,-0.157013,-0.964508,0.112152,1,1,1,1,1,88.000000
2024-05-15 12:29:15.184 AM,0.4984114066841954,-0.05073302083030461,-0.249694068785456,0.2110705604212446,0.3470545327146479,0.145874534317633,-0.06570680970443571,0.4322291014378979,1.243204832586771,0.6058025558558341,0.1804786925312783,1.086770343856975,0.4552598368649836,0.1188930629949699,-0.08287838066950941,0.5659072883951006,-0.1338922532914175,-0.0515296923554185,-0.4966664577766612,-0.04563751964414198,791.7582417582418,812.7106227106227,798.6080586080586,816.3369963369963,857.8388278388279,840.1098901098901,-0.082764,0.047119,0.992432,-0.157013,-0.964508,0.112152,1,1,1,1,1,88.000000
2024-05-15 12:29:15.185 AM,0.4984114066841954,-0.05073302083030461,-0.249694068785456,0.2110705604212446,0.3470545327146479,0.145874534317633,-0.06570680970443571,0.4322291014378979,1.243204832586771,0.6058025558558341,0.1804786925312783,1.086770343856975,0.4552598368649836,0.1188930629949699,-0.08287838066950941,0.5659072883951006,-0.1338922532914175,-0.0515296923554185,-0.4966664577766612,-0.04563751964414198,784.9084249084249,789.3406593406594,790.5494505494506,766.3736263736264,754.6886446886447,521.7948717948718,-0.082764,0.047119,0.992432,-0.157013,-0.964508,0.112152,1,1,1,1,1,88.000000
2024-05-15 12:29:15.185 AM,0.4984114066841954,-0.05073302083030461,-0.249694068785456,0.2110705604212446,0.3470545327146479,0.145874534317633,-0.06570680970443571,0.4322291014378979,1.243204832586771,0.6058025558558341,0.1804786925312783,1.086770343856975,0.4552598368649836,0.1188930629949699,-0.08287838066950941,0.5659072883951006,-0.1338922532914175,-0.0515296923554185,-0.4966664577766612,-0.04563751964414198,788.9377289377289,790.1465201465202,792.967032967033,764.7619047619048,730.1098901098901,462.967032967033,-0.082764,0.047119,0.992432,-0.157013,-0.964508,0.112152,1,1,1,1,1,88.000000
2024-05-15 12:29:15.185 AM,0.4984114066841954,-0.05073302083030461,-0.249694068785456,0.2110705604212446,0.3470545327146479,0.145874534317633,-0.06570680970443571,0.4322291014378979,1.243204832586771,0.6058025558558341,0.1804786925312783,1.086770343856975,0.4552598368649836,0.1188930629949699,-0.08287838066950941,0.5659072883951006,-0.1338922532914175,-0.0515296923554185,-0.4966664577766612,-0.04563751964414198,806.6666666666667,811.0989010989011,801.025641025641,819.5604395604396,828.021978021978,620.9157509157509,-0.082764,0.047119,0.992432,-0.157013,-0.964508,0.112152,1,1,1,1,1,88.000000
2024-05-15 12:29:15.186 AM,0.4703990679679367,0.02326014537482116,-0.1857509853790955,0.2082523778008462,0.3524727431593175,0.1455491294303999,-0.04720662967971755,0.4619550799243981,1.243204832586771,0.6058025558558341,0.1804786925312783,1.086770343856975,0.483426536901236,0.1247975372249129,-0.07167526265071797,0.5976933617359853,-0.1202687697545261,-0.04968373196791647,-0.4687434441697789,-0.02088861977629738,812.3076923076924,827.6190476190476,807.4725274725275,852.6007326007326,914.6520146520147,1137.875457875458,-0.082764,0.047119,0.992432,-0.157013,-0.964508,0.112152,1,1,1,1,1,88.000000
2024-05-15 12:29:15.187 AM,0.4703990679679367,0.02326014537482116,-0.1857509853790955,0.2082523778008462,0.3524727431593175,0.1455491294303999,-0.04720662967971755,0.4619550799243981,1.243204832586771,0.6058025558558341,0.1804786925312783,1.086770343856975,0.483426536901236,0.1247975372249129,-0.07167526265071797,0.5976933617359853,-0.1202687697545261,-0.04968373196791647,-0.4687434441697789,-0.02088861977629738,799.8168498168499,817.5457875457876,799.8168498168499,823.992673992674,855.4212454212454,1328.461538461539,-0.082764,0.047119,0.992432,-0.157013,-0.964508,0.112152,1,1,1,1,1,88.000000
2024-05-15 12:29:15.188 AM,0.4703990679679367,0.02326014537482116,-0.1857509853790955,0.2082523778008462,0.3524727431593175,0.1455491294303999,-0.04720662967971755,0.4619550799243981,1.243204832586771,0.6058025558558341,0.1804786925312783,1.086770343856975,0.483426536901236,0.1247975372249129,-0.07167526265071797,0.5976933617359853,-0.1202687697545261,-0.04968373196791647,-0.4687434441697789,-0.02088861977629738,790.1465201465202,793.3699633699634,788.9377289377289,778.0586080586081,767.1794871794872,826.007326007326,-0.082764,0.047119,0.992432,-0.157013,-0.964508,0.112152,1,1,1,1,1,88.000000
2024-05-15 12:29:15.188 AM,0.4703990679679367,0.02326014537482116,-0.1857509853790955,0.2082523778008462,0.3524727431593175,0.1455491294303999,-0.04720662967971755,0.4619550799243981,1.243204832586771,0.6058025558558341,0.1804786925312783,1.086770343856975,0.483426536901236,0.1247975372249129,-0.07167526265071797,0.5976933617359853,-0.1202687697545261,-0.04968373196791647,-0.4687434441697789,-0.02088861977629738,800.2197802197802,787.3260073260074,796.5934065934066,782.893772893773,730.5128205128206,479.0842490842491,-0.082764,0.047119,0.992432,-0.157013,-0.964508,0.112152,1,1,1,1,1,88.000000
2024-05-15 12:29:15.188 AM,0.4703990679679367,0.02326014537482116,-0.1857509853790955,0.2082523778008462,0.3524727431593175,0.1455491294303999,-0.04720662967971755,0.4619550799243981,1.243204832586771,0.6058025558558341,0.1804786925312783,1.086770343856975,0.483426536901236,0.1247975372249129,-0.07167526265071797,0.5976933617359853,-0.1202687697545261,-0.04968373196791647,-0.4687434441697789,-0.02088861977629738,816.3369963369963,805.4578754578755,804.2490842490843,823.992673992674,779.2673992673992,632.6007326007326,-0.082764,0.047119,0.992432,-0.157013,-0.964508,0.112152,1,1,1,1,1,88.000000
2024-05-15 12:29:15.188 AM,0.4703990679679367,0.02326014537482116,-0.1857509853790955,0.2082523778008462,0.3524727431593175,0.1455491294303999,-0.04720662967971755,0.4619550799243981,1.243204832586771,0.6058025558558341,0.1804786925312783,1.086770343856975,0.483426536901236,0.1247975372249129,-0.07167526265071797,0.5976933617359853,-0.1202687697545261,-0.04968373196791647,-0.4687434441697789,-0.02088861977629738,817.1428571428571,821.1721611721612,806.2637362637363,854.2124542124542,902.1611721611722,897.7289377289378,-0.082764,0.047119,0.992432,-0.157013,-0.964508,0.112152,1,1,1,1,1,88.000000
2024-05-15 12:29:15.189 AM,0.4703990679679367,0.02326014537482116,-0.1857509853790955,0.2082523778008462,0.3524727431593175,0.1455491294303999,-0.04720662967971755,0.4619550799243981,1.243204832586771,0.6058025558558341,0.1804786925312783,1.086770343856975,0.483426536901236,0.1247975372249129,-0.07167526265071797,0.5976933617359853,-0.1202687697545261,-0.04968373196791647,-0.4687434441697789,-0.02088861977629738,792.967032967033,807.8754578754579,801.4285714285714,831.2454212454213,911.4285714285714,945.6776556776557,-0.082764,0.047119,0.992432,-0.157013,-0.964508,0.112152,1,1,1,1,1,88.000000
2024-05-15 12:29:15.233 AM,0.4703990679679367,0.02326014537482116,-0.1857509853790955,0.2082523778008462,0.3524727431593175,0.1455491294303999,-0.04720662967971755,0.4619550799243981,1.243204832586771,0.6058025558558341,0.1804786925312783,1.086770343856975,0.483426536901236,0.1247975372249129,-0.07167526265071797,0.5976933617359853,-0.1202687697545261,-0.04968373196791647,-0.4687434441697789,-0.02088861977629738,772.014652014652,779.2673992673992,793.7728937728938,769.5970695970697,792.967032967033,605.2014652014652,-0.082397,0.048279,0.990479,-0.082245,-0.934601,0.485992,1,1,1,1,1,88.000000
2024-05-15 12:29:15.233 AM,0.4703990679679367,0.02326014537482116,-0.1857509853790955,0.2082523778008462,0.3524727431593175,0.1455491294303999,-0.04720662967971755,0.4619550799243981,1.243204832586771,0.6058025558558341,0.1804786925312783,1.086770343856975,0.483426536901236,0.1247975372249129,-0.07167526265071797,0.5976933617359853,-0.1202687697545261,-0.04968373196791647,-0.4687434441697789,-0.02088861977629738,778.8644688644689,775.2380952380953,794.5787545787546,753.0769230769231,725.6776556776557,425.4945054945055,-0.082397,0.048279,0.990479,-0.082245,-0.934601,0.485992,1,1,1,1,1,88.000000
2024-05-15 12:29:15.233 AM,0.4703990679679367,0.02326014537482116,-0.1857509853790955,0.2082523778008462,0.3524727431593175,0.1455491294303999,-0.04720662967971755,0.4619550799243981,1.243204832586771,0.6058025558558341,0.1804786925312783,1.086770343856975,0.483426536901236,0.1247975372249129,-0.07167526265071797,0.5976933617359853,-0.1202687697545261,-0.04968373196791647,-0.4687434441697789,-0.02088861977629738,792.967032967033,802.6373626373627,800.6227106227107,796.996336996337,751.0622710622711,812.7106227106227,-0.082397,0.048279,0.990479,-0.082245,-0.934601,0.485992,1,1,1,1,1,88.000000
2024-05-15 12:29:15.234 AM,0.4703990679679367,0.02326014537482116,-0.1857509853790955,0.2082523778008462,0.3524727431593175,0.1455491294303999,-0.04720662967971755,0.4619550799243981,1.243204832586771,0.6058025558558341,0.1804786925312783,1.086770343856975,0.483426536901236,0.1247975372249129,-0.07167526265071797,0.5976933617359853,-0.1202687697545261,-0.04968373196791647,-0.4687434441697789,-0.02088861977629738,795.7875457875458,820.3663003663004,806.6666666666667,836.4835164835165,859.8534798534798,1041.172161172161,-0.082397,0.048279,0.990479,-0.082245,-0.934601,0.485992,1,1,1,1,1,88.000000
2024-05-15 12:29:15.234 AM,0.4703990679679367,0.02326014537482116,-0.1857509853790955,0.2082523778008462,0.3524727431593175,0.1455491294303999,-0.04720662967971755,0.4619550799243981,1.243204832586771,0.6058025558558341,0.1804786925312783,1.086770343856975,0.483426536901236,0.1247975372249129,-0.07167526265071797,0.5976933617359853,-0.1202687697545261,-0.04968373196791647,-0.4687434441697789,-0.02088861977629738,784.5054945054945,810.2930402930403,804.6520146520147,818.7545787545788,894.908424908425,915.0549450549451,-0.082397,0.048279,0.990479,-0.082245,-0.934601,0.485992,1,1,1,1,1,88.000000
2024-05-15 12:29:15.234 AM,0.4703990679679367,0.02326014537482116,-0.1857509853790955,0.2082523778008462,0.3524727431593175,0.1455491294303999,-0.04720662967971755,0.4619550799243981,1.243204832586771,0.6058025558558341,0.1804786925312783,1.086770343856975,0.483426536901236,0.1247975372249129,-0.07167526265071797,0.5976933617359853,-0.1202687697545261,-0.04968373196791647,-0.4687434441697789,-0.02088861977629738,765.1648351648352,792.5641025641025,795.3846153846154,765.5677655677656,756.3003663003664,945.2747252747253,-0.082397,0.048279,0.990479,-0.082245,-0.934601,0.485992,1,1,1,1,1,88.000000
2024-05-15 12:29:15.235 AM,0.4703990679679367,0.02326014537482116,-0.1857509853790955,0.2082523778008462,0.3524727431593175,0.1455491294303999,-0.04720662967971755,0.4619550799243981,1.243204832586771,0.6058025558558341,0.1804786925312783,1.086770343856975,0.483426536901236,0.1247975372249129,-0.07167526265071797,0.5976933617359853,-0.1202687697545261,-0.04968373196791647,-0.4687434441697789,-0.02088861977629738,763.956043956044,785.3113553113553,793.3699633699634,751.0622710622711,658.3882783882784,879.1941391941392,-0.082397,0.048279,0.990479,-0.082245,-0.934601,0.485992,1,1,1,1,1,88.000000
2024-05-15 12:29:15.235 AM,0.4703990679679367,0.02326014537482116,-0.1857509853790955,0.2082523778008462,0.3524727431593175,0.1455491294303999,-0.04720662967971755,0.4619550799243981,1.243204832586771,0.6058025558558341,0.1804786925312783,1.086770343856975,0.483426536901236,0.1247975372249129,-0.07167526265071797,0.5976933617359853,-0.1202687697545261,-0.04968373196791647,-0.4687434441697789,-0.02088861977629738,787.3260073260074,799.8168498168499,799.8168498168499,785.7142857142858,706.7399267399268,971.4652014652015,-0.082397,0.048279,0.990479,-0.082245,-0.934601,0.485992,1,1,1,1,1,88.000000
2024-05-15 12:29:15.235 AM,0.4703990679679367,0.02326014537482116,-0.1857509853790955,0.2082523778008462,0.3524727431593175,0.1455491294303999,-0.04720662967971755,0.4619550799243981,1.243204832586771,0.6058025558558341,0.1804786925312783,1.086770343856975,0.483426536901236,0.1247975372249129,-0.07167526265071797,0.5976933617359853,-0.1202687697545261,-0.04968373196791647,-0.4687434441697789,-0.02088861977629738,802.6373626373627,811.0989010989011,803.040293040293,827.6190476190476,856.6300366300367,1088.315018315018,-0.082397,0.048279,0.990479,-0.082245,-0.934601,0.485992,1,1,1,1,1,88.000000
2024-05-15 12:29:15.236 AM,0.4703990679679367,0.02326014537482116,-0.1857509853790955,0.2082523778008462,0.3524727431593175,0.1455491294303999,-0.04720662967971755,0.4619550799243981,1.243204832586771,0.6058025558558341,0.1804786925312783,1.086770343856975,0.483426536901236,0.1247975372249129,-0.07167526265071797,0.5976933617359853,-0.1202687697545261,-0.04968373196791647,-0.4687434441697789,-0.02088861977629738,789.3406593406594,804.6520146520147,796.996336996337,821.1721611721612,898.5347985347986,913.8461538461539,-0.082397,0.048279,0.990479,-0.082245,-0.934601,0.485992,1,1,1,1,1,88.000000
2024-05-15 12:29:15.236 AM,0.4703990679679367,0.02326014537482116,-0.1857509853790955,0.2082523778008462,0.3524727431593175,0.1455491294303999,-0.04720662967971755,0.4619550799243981,1.243204832586771,0.6058025558558341,0.1804786925312783,1.086770343856975,0.483426536901236,0.1247975372249129,-0.07167526265071797,0.5976933617359853,-0.1202687697545261,-0.04968373196791647,-0.4687434441697789,-0.02088861977629738,772.014652014652,789.3406593406594,787.3260073260074,770.8058608058608,780.4761904761905,668.4615384615385,-0.082397,0.048279,0.990479,-0.082245,-0.934601,0.485992,1,1,1,1,1,88.000000
2024-05-15 12:29:15.236 AM,0.4703990679679367,0.02326014537482116,-0.1857509853790955,0.2082523778008462,0.3524727431593175,0.1455491294303999,-0.04720662967971755,0.4619550799243981,1.243204832586771,0.6058025558558341,0.1804786925312783,1.086770343856975,0.483426536901236,0.1247975372249129,-0.07167526265071797,0.5976933617359853,-0.1202687697545261,-0.04968373196791647,-0.4687434441697789,-0.02088861977629738,773.2234432234433,780.4761904761905,785.3113553113553,747.4358974358975,653.1501831501831,401.3186813186813,-0.082397,0.048279,0.990479,-0.082245,-0.934601,0.485992,1,1,1,1,1,88.000000
2024-05-15 12:29:15.259 AM,0.4703990679679367,0.02326014537482116,-0.1857509853790955,0.2082523778008462,0.3524727431593175,0.1455491294303999,-0.04720662967971755,0.4619550799243981,1.243204832586771,0.6058025558558341,0.1804786925312783,1.086770343856975,0.483426536901236,0.1247975372249129,-0.07167526265071797,0.5976933617359853,-0.1202687697545261,-0.04968373196791647,-0.4687434441697789,-0.02088861977629738,788.5347985347986,794.5787545787546,796.5934065934066,785.7142857142858,682.5641025641025,396.4835164835165,-0.082397,0.048279,0.990479,-0.082245,-0.934601,0.485992,1,1,1,1,1,88.000000
2024-05-15 12:29:15.259 AM,0.4703990679679367,0.02326014537482116,-0.1857509853790955,0.2082523778008462,0.3524727431593175,0.1455491294303999,-0.04720662967971755,0.4619550799243981,1.243204832586771,0.6058025558558341,0.1804786925312783,1.086770343856975,0.483426536901236,0.1247975372249129,-0.07167526265071797,0.5976933617359853,-0.1202687697545261,-0.04968373196791647,-0.4687434441697789,-0.02088861977629738,799.8168498168499,812.7106227106227,805.4578754578755,832.8571428571429,838.0952380952381,727.2893772893773,-0.082397,0.048279,0.990479,-0.082245,-0.934601,0.485992,1,1,1,1,1,88.000000
2024-05-15 12:29:15.259 AM,0.4703990679679367,0.02326014537482116,-0.1857509853790955,0.2082523778008462,0.3524727431593175,0.1455491294303999,-0.04720662967971755,0.4619550799243981,1.243204832586771,0.6058025558558341,0.1804786925312783,1.086770343856975,0.483426536901236,0.1247975372249129,-0.07167526265071797,0.5976933617359853,-0.1202687697545261,-0.04968373196791647,-0.4687434441697789,-0.02088861977629738,794.5787545787546,813.919413919414,800.6227106227107,822.7838827838829,909.8168498168499,948.0952380952381,-0.082397,0.048279,0.990479,-0.082245,-0.934601,0.485992,1,1,1,1,1,88.000000
2024-05-15 12:29:15.260 AM,0.4703990679679367,0.02326014537482116,-0.1857509853790955,0.2082523778008462,0.3524727431593175,0.1455491294303999,-0.04720662967971755,0.4619550799243981,1.243204832586771,0.6058025558558341,0.1804786925312783,1.086770343856975,0.483426536901236,0.1247975372249129,-0.07167526265071797,0.5976933617359853,-0.1202687697545261,-0.04968373196791647,-0.4687434441697789,-0.02088861977629738,783.2967032967033,791.7582417582418,785.7142857142858,777.6556776556777,841.3186813186813,715.6043956043957,-0.082397,0.048279,0.990479,-0.082245,-0.934601,0.485992,1,1,1,1,1,88.000000
2024-05-15 12:29:15.260 AM,0.4703990679679367,0.02326014537482116,-0.1857509853790955,0.2082523778008462,0.3524727431593175,0.1455491294303999,-0.04720662967971755,0.4619550799243981,1.243204832586771,0.6058025558558341,0.1804786925312783,1.086770343856975,0.483426536901236,0.1247975372249129,-0.07167526265071797,0.5976933617359853,-0.1202687697545261,-0.04968373196791647,-0.4687434441697789,-0.02088861977629738,780.4761904761905,776.8498168498169,783.2967032967033,751.8681318681319,780.0732600732601,611.6483516483516,-0.082397,0.048279,0.990479,-0.082245,-0.934601,0.485992,1,1,1,1,1,88.000000
2024-05-15 12:29:15.260 AM,0.4703990679679367,0.02326014537482116,-0.1857509853790955,0.2082523778008462,0.3524727431593175,0.1455491294303999,-0.04720662967971755,0.4619550799243981,1.243204832586771,0.6058025558558341,0.1804786925312783,1.086770343856975,0.483426536901236,0.1247975372249129,-0.07167526265071797,0.5976933617359853,-0.1202687697545261,-0.04968373196791647,-0.4687434441697789,-0.02088861977629738,790.1465201465202,790.5494505494506,795.7875457875458,779.6703296703297,707.5457875457876,806.2637362637363,-0.082397,0.048279,0.990479,-0.082245,-0.934601,0.485992,1,1,1,1,1,88.000000
2024-05-15 12:29:15.260 AM,0.4703990679679367,0.02326014537482116,-0.1857509853790955,0.2082523778008462,0.3524727431593175,0.1455491294303999,-0.04720662967971755,0.4619550799243981,1.243204832586771,0.6058025558558341,0.1804786925312783,1.086770343856975,0.483426536901236,0.1247975372249129,-0.07167526265071797,0.5976933617359853,-0.1202687697545261,-0.04968373196791647,-0.4687434441697789,-0.02088861977629738,809.0842490842491,816.3369963369963,806.6666666666667,834.4688644688645,746.6300366300367,1143.113553113553,-0.082397,0.048279,0.990479,-0.082245,-0.934601,0.485992,1,1,1,1,1,88.000000
2024-05-15 12:29:15.261 AM,0.4394592350452148,0.08523225052376653,-0.1450343558927979,0.2185810933618611,0.3625620491401149,0.1396060142573578,-0.03607067302251829,0.5023218045950024,1.243204832586771,0.6058025558558341,0.1804786925312783,1.086770343856975,0.5190933077476495,0.1235442373221264,-0.05803346211411854,0.6382216085239387,-0.1092748332394861,-0.05432052980426814,-0.4444132372114235,0.008293698164395664,805.4578754578755,817.948717948718,801.025641025641,835.6776556776557,851.3919413919414,1277.692307692308,-0.082397,0.048279,0.990479,-0.082245,-0.934601,0.485992,1,1,1,1,1,88.000000
2024-05-15 12:29:15.262 AM,0.4394592350452148,0.08523225052376653,-0.1450343558927979,0.2185810933618611,0.3625620491401149,0.1396060142573578,-0.03607067302251829,0.5023218045950024,1.243204832586771,0.6058025558558341,0.1804786925312783,1.086770343856975,0.5190933077476495,0.1235442373221264,-0.05803346211411854,0.6382216085239387,-0.1092748332394861,-0.05432052980426814,-0.4444132372114235,0.008293698164395664,783.6996336996338,791.3553113553114,790.952380952381,788.9377289377289,804.2490842490843,743.8095238095239,-0.082397,0.048279,0.990479,-0.082245,-0.934601,0.485992,1,1,1,1,1,88.000000
2024-05-15 12:29:15.262 AM,0.4394592350452148,0.08523225052376653,-0.1450343558927979,0.2185810933618611,0.3625620491401149,0.1396060142573578,-0.03607067302251829,0.5023218045950024,1.243204832586771,0.6058025558558341,0.1804786925312783,1.086770343856975,0.5190933077476495,0.1235442373221264,-0.05803346211411854,0.6382216085239387,-0.1092748332394861,-0.05432052980426814,-0.4444132372114235,0.008293698164395664,784.1025641025641,779.2673992673992,789.7435897435897,753.8827838827839,722.8571428571429,365.0549450549451,-0.082397,0.048279,0.990479,-0.082245,-0.934601,0.485992,1,1,1,1,1,88.000000
2024-05-15 12:29:15.262 AM,0.4394592350452148,0.08523225052376653,-0.1450343558927979,0.2185810933618611,0.3625620491401149,0.1396060142573578,-0.03607067302251829,0.5023218045950024,1.243204832586771,0.6058025558558341,0.1804786925312783,1.086770343856975,0.5190933077476495,0.1235442373221264,-0.05803346211411854,0.6382216085239387,-0.1092748332394861,-0.05432052980426814,-0.4444132372114235,0.008293698164395664,796.5934065934066,791.3553113553114,791.7582417582418,770.8058608058608,739.7802197802198,450.4761904761905,-0.082397,0.048279,0.990479,-0.082245,-0.934601,0.485992,1,1,1,1,1,88.000000
2024-05-15 12:29:15.263 AM,0.4394592350452148,0.08523225052376653,-0.1450343558927979,0.2185810933618611,0.3625620491401149,0.1396060142573578,-0.03607067302251829,0.5023218045950024,1.243204832586771,0.6058025558558341,0.1804786925312783,1.086770343856975,0.5190933077476495,0.1235442373221264,-0.05803346211411854,0.6382216085239387,-0.1092748332394861,-0.05432052980426814,-0.4444132372114235,0.008293698164395664,808.2783882783883,810.2930402930403,801.025641025641,820.3663003663004,802.2344322344322,697.4725274725275,-0.082397,0.048279,0.990479,-0.082245,-0.934601,0.485992,1,1,1,1,1,88.000000
2024-05-15 12:29:15.305 AM,0.4394592350452148,0.08523225052376653,-0.1450343558927979,0.2185810933618611,0.3625620491401149,0.1396060142573578,-0.03607067302251829,0.5023218045950024,1.243204832586771,0.6058025558558341,0.1804786925312783,1.086770343856975,0.5190933077476495,0.1235442373221264,-0.05803346211411854,0.6382216085239387,-0.1092748332394861,-0.05432052980426814,-0.4444132372114235,0.008293698164395664,805.0549450549451,812.7106227106227,799.0109890109891,834.0659340659341,817.948717948718,730.9157509157509,-0.079773,0.045715,0.996765,-0.037384,-1.091614,0.306549,1,1,1,1,1,88.000000
2024-05-15 12:29:15.306 AM,0.4394592350452148,0.08523225052376653,-0.1450343558927979,0.2185810933618611,0.3625620491401149,0.1396060142573578,-0.03607067302251829,0.5023218045950024,1.243204832586771,0.6058025558558341,0.1804786925312783,1.086770343856975,0.5190933077476495,0.1235442373221264,-0.05803346211411854,0.6382216085239387,-0.1092748332394861,-0.05432052980426814,-0.4444132372114235,0.008293698164395664,790.5494505494506,796.996336996337,790.952380952381,797.8021978021978,810.2930402930403,644.2857142857143,-0.079773,0.045715,0.996765,-0.037384,-1.091614,0.306549,1,1,1,1,1,88.000000
2024-05-15 12:29:15.306 AM,0.4394592350452148,0.08523225052376653,-0.1450343558927979,0.2185810933618611,0.3625620491401149,0.1396060142573578,-0.03607067302251829,0.5023218045950024,1.243204832586771,0.6058025558558341,0.1804786925312783,1.086770343856975,0.5190933077476495,0.1235442373221264,-0.05803346211411854,0.6382216085239387,-0.1092748332394861,-0.05432052980426814,-0.4444132372114235,0.008293698164395664,784.9084249084249,780.4761904761905,788.5347985347986,765.1648351648352,792.5641025641025,571.7582417582418,-0.079773,0.045715,0.996765,-0.037384,-1.091614,0.306549,1,1,1,1,1,88.000000
2024-05-15 12:29:15.306 AM,0.4394592350452148,0.08523225052376653,-0.1450343558927979,0.2185810933618611,0.3625620491401149,0.1396060142573578,-0.03607067302251829,0.5023218045950024,1.243204832586771,0.6058025558558341,0.1804786925312783,1.086770343856975,0.5190933077476495,0.1235442373221264,-0.05803346211411854,0.6382216085239387,-0.1092748332394861,-0.05432052980426814,-0.4444132372114235,0.008293698164395664,795.7875457875458,782.4908424908425,790.1465201465202,782.893772893773,802.2344322344322,578.2051282051282,-0.079773,0.045715,0.996765,-0.037384,-1.091614,0.306549,1,1,1,1,1,88.000000
2024-05-15 12:29:15.306 AM,0.4394592350452148,0.08523225052376653,-0.1450343558927979,0.2185810933618611,0.3625620491401149,0.1396060142573578,-0.03607067302251829,0.5023218045950024,1.243204832586771,0.6058025558558341,0.1804786925312783,1.086770343856975,0.5190933077476495,0.1235442373221264,-0.05803346211411854,0.6382216085239387,-0.1092748332394861,-0.05432052980426814,-0.4444132372114235,0.008293698164395664,811.0989010989011,805.0549450549451,800.2197802197802,834.8717948717949,873.956043956044,915.8608058608058,-0.079773,0.045715,0.996765,-0.037384,-1.091614,0.306549,1,1,1,1,1,88.000000
2024-05-15 12:29:15.307 AM,0.4394592350452148,0.08523225052376653,-0.1450343558927979,0.2185810933618611,0.3625620491401149,0.1396060142573578,-0.03607067302251829,0.5023218045950024,1.243204832586771,0.6058025558558341,0.1804786925312783,1.086770343856975,0.5190933077476495,0.1235442373221264,-0.05803346211411854,0.6382216085239387,-0.1092748332394861,-0.05432052980426814,-0.4444132372114235,0.008293698164395664,810.6959706959707,815.1282051282052,801.025641025641,848.5714285714286,923.5164835164835,1314.761904761905,-0.079773,0.045715,0.996765,-0.037384,-1.091614,0.306549,1,1,1,1,1,88.000000
2024-05-15 12:29:15.307 AM,0.4394592350452148,0.08523225052376653,-0.1450343558927979,0.2185810933618611,0.3625620491401149,0.1396060142573578,-0.03607067302251829,0.5023218045950024,1.243204832586771,0.6058025558558341,0.1804786925312783,1.086770343856975,0.5190933077476495,0.1235442373221264,-0.05803346211411854,0.6382216085239387,-0.1092748332394861,-0.05432052980426814,-0.4444132372114235,0.008293698164395664,788.9377289377289,800.2197802197802,788.1318681318681,803.4432234432235,927.5457875457876,1328.864468864469,-0.079773,0.045715,0.996765,-0.037384,-1.091614,0.306549,1,1,1,1,1,88.000000
2024-05-15 12:29:15.307 AM,0.4394592350452148,0.08523225052376653,-0.1450343558927979,0.2185810933618611,0.3625620491401149,0.1396060142573578,-0.03607067302251829,0.5023218045950024,1.243204832586771,0.6058025558558341,0.1804786925312783,1.086770343856975,0.5190933077476495,0.1235442373221264,-0.05803346211411854,0.6382216085239387,-0.1092748332394861,-0.05432052980426814,-0.4444132372114235,0.008293698164395664,774.4322344322345,778.4615384615385,782.4908424908425,763.1501831501831,866.3003663003664,1164.871794871795,-0.079773,0.045715,0.996765,-0.037384,-1.091614,0.306549,1,1,1,1,1,88.000000
2024-05-15 12:29:15.307 AM,0.4394592350452148,0.08523225052376653,-0.1450343558927979,0.2185810933618611,0.3625620491401149,0.1396060142573578,-0.03607067302251829,0.5023218045950024,1.243204832586771,0.6058025558558341,0.1804786925312783,1.086770343856975,0.5190933077476495,0.1235442373221264,-0.05803346211411854,0.6382216085239387,-0.1092748332394861,-0.05432052980426814,-0.4444132372114235,0.008293698164395664,786.5201465201466,778.8644688644689,788.9377289377289,776.4468864468864,840.5128205128206,918.6813186813187,-0.079773,0.045715,0.996765,-0.037384,-1.091614,0.306549,1,1,1,1,1,88.000000
2024-05-15 12:29:15.307 AM,0.4394592350452148,0.08523225052376653,-0.1450343558927979,0.2185810933618611,0.3625620491401149,0.1396060142573578,-0.03607067302251829,0.5023218045950024,1.243204832586771,0.6058025558558341,0.1804786925312783,1.086770343856975,0.5190933077476495,0.1235442373221264,-0.05803346211411854,0.6382216085239387,-0.1092748332394861,-0.05432052980426814,-0.4444132372114235,0.008293698164395664,804.6520146520147,799.0109890109891,795.7875457875458,825.2014652014652,911.8315018315019,761.5384615384615,-0.079773,0.045715,0.996765,-0.037384,-1.091614,0.306549,1,1,1,1,1,88.000000
2024-05-15 12:29:15.308 AM,0.4394592350452148,0.08523225052376653,-0.1450343558927979,0.2185810933618611,0.3625620491401149,0.1396060142573578,-0.03607067302251829,0.5023218045950024,1.243204832586771,0.6058025558558341,0.1804786925312783,1.086770343856975,0.5190933077476495,0.1235442373221264,-0.05803346211411854,0.6382216085239387,-0.1092748332394861,-0.05432052980426814,-0.4444132372114235,0.008293698164395664,805.4578754578755,811.9047619047619,793.3699633699634,839.3040293040293,966.6300366300367,922.3076923076924,-0.079773,0.045715,0.996765,-0.037384,-1.091614,0.306549,1,1,1,1,1,88.000000
2024-05-15 12:29:15.308 AM,0.4394592350452148,0.08523225052376653,-0.1450343558927979,0.2185810933618611,0.3625620491401149,0.1396060142573578,-0.03607067302251829,0.5023218045950024,1.243204832586771,0.6058025558558341,0.1804786925312783,1.086770343856975,0.5190933077476495,0.1235442373221264,-0.05803346211411854,0.6382216085239387,-0.1092748332394861,-0.05432052980426814,-0.4444132372114235,0.008293698164395664,789.7435897435897,799.0109890109891,786.1172161172161,802.2344322344322,915.0549450549451,873.5531135531136,-0.079773,0.045715,0.996765,-0.037384,-1.091614,0.306549,1,1,1,1,1,88.000000
2024-05-15 12:29:15.373 AM,0.4394592350452148,0.08523225052376653,-0.1450343558927979,0.2185810933618611,0.3625620491401149,0.1396060142573578,-0.03607067302251829,0.5023218045950024,1.243204832586771,0.6058025558558341,0.1804786925312783,1.086770343856975,0.5190933077476495,0.1235442373221264,-0.05803346211411854,0.6382216085239387,-0.1092748332394861,-0.05432052980426814,-0.4444132372114235,0.008293698164395664,782.0879120879121,776.0439560439561,779.6703296703297,756.7032967032967,788.5347985347986,487.5457875457876,-0.081116,0.052368,0.997437,-0.216827,-0.299072,0.665436,1,1,1,1,1,88.000000
2024-05-15 12:29:15.374 AM,0.4394592350452148,0.08523225052376653,-0.1450343558927979,0.2185810933618611,0.3625620491401149,0.1396060142573578,-0.03607067302251829,0.5023218045950024,1.243204832586771,0.6058025558558341,0.1804786925312783,1.086770343856975,0.5190933077476495,0.1235442373221264,-0.05803346211411854,0.6382216085239387,-0.1092748332394861,-0.05432052980426814,-0.4444132372114235,0.008293698164395664,790.5494505494506,777.6556776556777,782.893772893773,756.3003663003664,726.0805860805862,339.6703296703297,-0.081116,0.052368,0.997437,-0.216827,-0.299072,0.665436,1,1,1,1,1,88.000000
2024-05-15 12:29:15.374 AM,0.4394592350452148,0.08523225052376653,-0.1450343558927979,0.2185810933618611,0.3625620491401149,0.1396060142573578,-0.03607067302251829,0.5023218045950024,1.243204832586771,0.6058025558558341,0.1804786925312783,1.086770343856975,0.5190933077476495,0.1235442373221264,-0.05803346211411854,0.6382216085239387,-0.1092748332394861,-0.05432052980426814,-0.4444132372114235,0.008293698164395664,800.6227106227107,799.0109890109891,796.5934065934066,800.2197802197802,805.4578754578755,643.0769230769231,-0.081116,0.052368,0.997437,-0.216827,-0.299072,0.665436,1,1,1,1,1,88.000000
2024-05-15 12:29:15.374 AM,0.4394592350452148,0.08523225052376653,-0.1450343558927979,0.2185810933618611,0.3625620491401149,0.1396060142573578,-0.03607067302251829,0.5023218045950024,1.243204832586771,0.6058025558558341,0.1804786925312783,1.086770343856975,0.5190933077476495,0.1235442373221264,-0.05803346211411854,0.6382216085239387,-0.1092748332394861,-0.05432052980426814,-0.4444132372114235,0.008293698164395664,804.2490842490843,815.934065934066,802.2344322344322,831.2454212454213,929.5604395604396,930.3663003663004,-0.081116,0.052368,0.997437,-0.216827,-0.299072,0.665436,1,1,1,1,1,88.000000
2024-05-15 12:29:15.375 AM,0.4394592350452148,0.08523225052376653,-0.1450343558927979,0.2185810933618611,0.3625620491401149,0.1396060142573578,-0.03607067302251829,0.5023218045950024,1.243204832586771,0.6058025558558341,0.1804786925312783,1.086770343856975,0.5190933077476495,0.1235442373221264,-0.05803346211411854,0.6382216085239387,-0.1092748332394861,-0.05432052980426814,-0.4444132372114235,0.008293698164395664,799.8168498168499,805.4578754578755,794.5787545787546,808.6813186813187,831.6483516483516,783.2967032967033,-0.081116,0.052368,0.997437,-0.216827,-0.299072,0.665436,1,1,1,1,1,88.000000
2024-05-15 12:29:15.375 AM,0.4394592350452148,0.08523225052376653,-0.1450343558927979,0.2185810933618611,0.3625620491401149,0.1396060142573578,-0.03607067302251829,0.5023218045950024,1.243204832586771,0.6058025558558341,0.1804786925312783,1.086770343856975,0.5190933077476495,0.1235442373221264,-0.05803346211411854,0.6382216085239387,-0.1092748332394861,-0.05432052980426814,-0.4444132372114235,0.008293698164395664,795.7875457875458,788.5347985347986,789.7435897435897,769.1941391941392,727.6923076923077,809.4871794871796,-0.081116,0.052368,0.997437,-0.216827,-0.299072,0.665436,1,1,1,1,1,88.000000
2024-05-15 12:29:15.375 AM,0.4394592350452148,0.08523225052376653,-0.1450343558927979,0.2185810933618611,0.3625620491401149,0.1396060142573578,-0.03607067302251829,0.5023218045950024,1.243204832586771,0.6058025558558341,0.1804786925312783,1.086770343856975,0.5190933077476495,0.1235442373221264,-0.05803346211411854,0.6382216085239387,-0.1092748332394861,-0.05432052980426814,-0.4444132372114235,0.008293698164395664,801.025641025641,790.5494505494506,794.1758241758242,772.4175824175825,716.007326007326,943.2600732600733,-0.081116,0.052368,0.997437,-0.216827,-0.299072,0.665436,1,1,1,1,1,88.000000
2024-05-15 12:29:15.376 AM,0.4394592350452148,0.08523225052376653,-0.1450343558927979,0.2185810933618611,0.3625620491401149,0.1396060142573578,-0.03607067302251829,0.5023218045950024,1.243204832586771,0.6058025558558341,0.1804786925312783,1.086770343856975,0.5190933077476495,0.1235442373221264,-0.05803346211411854,0.6382216085239387,-0.1092748332394861,-0.05432052980426814,-0.4444132372114235,0.008293698164395664,814.7252747252747,803.040293040293,804.6520146520147,811.0989010989011,754.2857142857143,796.5934065934066,-0.081116,0.052368,0.997437,-0.216827,-0.299072,0.665436,1,1,1,1,1,88.000000
2024-05-15 12:29:15.376 AM,0.4394592350452148,0.08523225052376653,-0.1450343558927979,0.2185810933618611,0.3625620491401149,0.1396060142573578,-0.03607067302251829,0.5023218045950024,1.243204832586771,0.6058025558558341,0.1804786925312783,1.086770343856975,0.5190933077476495,0.1235442373221264,-0.05803346211411854,0.6382216085239387,-0.1092748332394861,-0.05432052980426814,-0.4444132372114235,0.008293698164395664,829.6336996336996,815.5311355311355,807.8754578754579,850.1831501831502,900.952380952381,734.9450549450549,-0.081116,0.052368,0.997437,-0.216827,-0.299072,0.665436,1,1,1,1,1,88.000000
2024-05-15 12:29:15.376 AM,0.4285477980609555,0.1439383108731155,-0.1256029561968131,0.2435572551675132,0.3857174813691128,0.1333850894957683,-0.02774887685257034,0.5546899639503537,1.243204832586771,0.6058025558558341,0.1804786925312783,1.086770343856975,0.5574905054666899,0.116339989198179,-0.04276143443971333,0.6890889997860724,-0.1032257846168012,-0.06668871806987646,-0.4287090584038003,0.03635894764904236,819.96336996337,809.4871794871796,799.0109890109891,831.6483516483516,928.7545787545788,929.1575091575091,-0.081116,0.052368,0.997437,-0.216827,-0.299072,0.665436,1,1,1,1,1,88.000000
2024-05-15 12:29:15.378 AM,0.4285477980609555,0.1439383108731155,-0.1256029561968131,0.2435572551675132,0.3857174813691128,0.1333850894957683,-0.02774887685257034,0.5546899639503537,1.243204832586771,0.6058025558558341,0.1804786925312783,1.086770343856975,0.5574905054666899,0.116339989198179,-0.04276143443971333,0.6890889997860724,-0.1032257846168012,-0.06668871806987646,-0.4287090584038003,0.03635894764904236,801.025641025641,788.5347985347986,789.7435897435897,782.893772893773,803.8461538461539,902.1611721611722,-0.081116,0.052368,0.997437,-0.216827,-0.299072,0.665436,1,1,1,1,1,88.000000
2024-05-15 12:29:15.379 AM,0.4285477980609555,0.1439383108731155,-0.1256029561968131,0.2435572551675132,0.3857174813691128,0.1333850894957683,-0.02774887685257034,0.5546899639503537,1.243204832586771,0.6058025558558341,0.1804786925312783,1.086770343856975,0.5574905054666899,0.116339989198179,-0.04276143443971333,0.6890889997860724,-0.1032257846168012,-0.06668871806987646,-0.4287090584038003,0.03635894764904236,803.040293040293,780.8791208791209,792.967032967033,776.0439560439561,760.3296703296703,530.6593406593407,-0.081116,0.052368,0.997437,-0.216827,-0.299072,0.665436,1,1,1,1,1,88.000000
2024-05-15 12:29:15.421 AM,0.4285477980609555,0.1439383108731155,-0.1256029561968131,0.2435572551675132,0.3857174813691128,0.1333850894957683,-0.02774887685257034,0.5546899639503537,1.243204832586771,0.6058025558558341,0.1804786925312783,1.086770343856975,0.5574905054666899,0.116339989198179,-0.04276143443971333,0.6890889997860724,-0.1032257846168012,-0.06668871806987646,-0.4287090584038003,0.03635894764904236,807.4725274725275,799.8168498168499,801.025641025641,808.2783882783883,741.7948717948718,547.985347985348,-0.082275,0.047974,1.000610,-0.216827,0.680389,1.151428,1,1,1,1,1,88.000000
2024-05-15 12:29:15.422 AM,0.4285477980609555,0.1439383108731155,-0.1256029561968131,0.2435572551675132,0.3857174813691128,0.1333850894957683,-0.02774887685257034,0.5546899639503537,1.243204832586771,0.6058025558558341,0.1804786925312783,1.086770343856975,0.5574905054666899,0.116339989198179,-0.04276143443971333,0.6890889997860724,-0.1032257846168012,-0.06668871806987646,-0.4287090584038003,0.03635894764904236,808.2783882783883,817.5457875457876,803.8461538461539,852.6007326007326,829.6336996336996,843.3333333333334,-0.082275,0.047974,1.000610,-0.216827,0.680389,1.151428,1,1,1,1,1,88.000000
2024-05-15 12:29:15.423 AM,0.4285477980609555,0.1439383108731155,-0.1256029561968131,0.2435572551675132,0.3857174813691128,0.1333850894957683,-0.02774887685257034,0.5546899639503537,1.243204832586771,0.6058025558558341,0.1804786925312783,1.086770343856975,0.5574905054666899,0.116339989198179,-0.04276143443971333,0.6890889997860724,-0.1032257846168012,-0.06668871806987646,-0.4287090584038003,0.03635894764904236,790.5494505494506,810.6959706959707,801.025641025641,846.1538461538462,933.992673992674,972.6739926739928,-0.082275,0.047974,1.000610,-0.216827,0.680389,1.151428,1,1,1,1,1,88.000000
2024-05-15 12:29:15.423 AM,0.4285477980609555,0.1439383108731155,-0.1256029561968131,0.2435572551675132,0.3857174813691128,0.1333850894957683,-0.02774887685257034,0.5546899639503537,1.243204832586771,0.6058025558558341,0.1804786925312783,1.086770343856975,0.5574905054666899,0.116339989198179,-0.04276143443971333,0.6890889997860724,-0.1032257846168012,-0.06668871806987646,-0.4287090584038003,0.03635894764904236,763.956043956044,791.7582417582418,793.7728937728938,782.4908424908425,868.3150183150184,759.92673992674,-0.082275,0.047974,1.000610,-0.216827,0.680389,1.151428,1,1,1,1,1,88.000000
2024-05-15 12:29:15.424 AM,0.4285477980609555,0.1439383108731155,-0.1256029561968131,0.2435572551675132,0.3857174813691128,0.1333850894957683,-0.02774887685257034,0.5546899639503537,1.243204832586771,0.6058025558558341,0.1804786925312783,1.086770343856975,0.5574905054666899,0.116339989198179,-0.04276143443971333,0.6890889997860724,-0.1032257846168012,-0.06668871806987646,-0.4287090584038003,0.03635894764904236,763.1501831501831,780.0732600732601,789.3406593406594,751.4652014652015,765.9706959706959,518.1684981684982,-0.082275,0.047974,1.000610,-0.216827,0.680389,1.151428,1,1,1,1,1,88.000000
2024-05-15 12:29:15.424 AM,0.4285477980609555,0.1439383108731155,-0.1256029561968131,0.2435572551675132,0.3857174813691128,0.1333850894957683,-0.02774887685257034,0.5546899639503537,1.243204832586771,0.6058025558558341,0.1804786925312783,1.086770343856975,0.5574905054666899,0.116339989198179,-0.04276143443971333,0.6890889997860724,-0.1032257846168012,-0.06668871806987646,-0.4287090584038003,0.03635894764904236,778.8644688644689,795.7875457875458,795.7875457875458,787.7289377289378,756.3003663003664,827.2161172161173,-0.082275,0.047974,1.000610,-0.216827,0.680389,1.151428,1,1,1,1,1,88.000000
2024-05-15 12:29:15.424 AM,0.4285477980609555,0.1439383108731155,-0.1256029561968131,0.2435572551675132,0.3857174813691128,0.1333850894957683,-0.02774887685257034,0.5546899639503537,1.243204832586771,0.6058025558558341,0.1804786925312783,1.086770343856975,0.5574905054666899,0.116339989198179,-0.04276143443971333,0.6890889997860724,-0.1032257846168012,-0.06668871806987646,-0.4287090584038003,0.03635894764904236,791.3553113553114,820.7692307692308,805.4578754578755,839.7069597069598,832.4542124542124,1308.717948717949,-0.082275,0.047974,1.000610,-0.216827,0.680389,1.151428,1,1,1,1,1,88.000000
